# Input file       =  1205339709.115775_cleaned.dat
# Candidate        =  PSR_0332+5434
# Telescope        =  AR
# Epoch_topo       =  58194.691297636287
# Epoch_bary       =  N/A
# T_sample         =  0.002
# Data Folded      =  7340032
# Data Avg         =  0.289195742911292
# Data StdDev      =  5.53024885728197 
# Profile Bins     =  256
# Profile Avg      =  8291.85483171592 
# Profile StdDev   =  936.426442538703 
# Reduced chi-sqr  =  1.121
# Prob(Noise)      <  0.0893   (~1.3 sigma)
# P_topo (ms)      =  714.576991122619  +/- 0.000611
# P'_topo (s/s)    =  -0                +/- 3.22e-10
# P''_topo (s/s^2) =  0                 +/- 1.42e-13
# P_bary (ms)      =  N/A
# P'_bary (s/s)    =  N/A
# P''_bary (s/s^2) =  N/A
# P_orb (s)        =  N/A
# asin(i)/c (s)    =  N/A
# eccentricity     =  N/A
# w (rad)          =  N/A
# T_peri           =  N/A
######################################################
   0  8940.47
   1  8503.146
   2  9497.032
   3  8770.871
   4  8932.914
   5  9184.343
   6  8514.433
   7  7565.021
   8  8386.723
   9  8662.416
  10  9007.228
  11  8612.372
  12  8556.994
  13  8404.031
  14  8345.731
  15  8057.646
  16  8463.036
  17  8726.59
  18  8019.466
  19  8661.598
  20  9014.686
  21  8699.743
  22  7939.546
  23  8018.206
  24  9160.321
  25  8465.073
  26  7737.672
  27  7677.079
  28  8080.677
  29  7983.527
  30  7551.097
  31  8675.89
  32  9013.625
  33  8184.329
  34  8425.784
  35  8642.476
  36  8751.088
  37  8135.042
  38  9386.385
  39  9324.396
  40  9264.039
  41  9034.266
  42  8597.932
  43  8843.571
  44  8491.364
  45  8774.636
  46  8374.295
  47  7262.885
  48  7668.409
  49  7572.074
  50  7047.289
  51  7400.492
  52  7406.776
  53  8155.657
  54  7477.196
  55  7227.414
  56  7560.378
  57  6914.125
  58  6864.356
  59  7029.207
  60  6954.709
  61  6886.769
  62  7358.052
  63  7259.077
  64  7279.243
  65  7298.204
  66  8147.677
  67  7129.009
  68  7682.628
  69  7786.365
  70  7781.143
  71  7255.449
  72  7091.493
  73  7890.818
  74  7950.418
  75  8279.679
  76  7411.221
  77  7060.524
  78  7972.714
  79  8326.839
  80  7203.849
  81  7210.059
  82  7684.13
  83  7845.565
  84  8617.818
  85  8681.546
  86  9133.252
  87  9220.292
  88  8885.234
  89  7933.847
  90  7463.405
  91  8420.108
  92  9224.813
  93  9122.38
  94  8509.832
  95  9129.263
  96  8863.88
  97  9227.825
  98  8982.686
  99  8386.01
 100  8016.014
 101  7681.565
 102  8293.133
 103  8432.268
 104  7764.338
 105  7908.982
 106  7897.248
 107  8024.349
 108  8628.891
 109  7973.7
 110  7574.528
 111  8469.149
 112  8655.631
 113  7064.921
 114  7981.731
 115  8257.245
 116  7738.578
 117  7699.033
 118  8392.139
 119  8604.044
 120  8870.715
 121  9279.49
 122  7625.21
 123  9089.879
 124  8493.762
 125  8242.585
 126  8856.113
 127  9408.214
 128  8414.521
 129  8879.433
 130  8704.161
 131  8681.687
 132  7773.712
 133  7994.643
 134  8079.397
 135  8093.139
 136  8129.483
 137  7931.927
 138  7603.756
 139  7676.997
 140  8211.747
 141  8274.053
 142  9036.79
 143  8529.481
 144  7847.617
 145  8556.323
 146  8070.544
 147  9378.85
 148  9401.576
 149  9481.952
 150  11135.51
 151  12670.46
 152  14382.36
 153  10959.46
 154  9569.364
 155  9839.739
 156  9558.156
 157  7832.094
 158  8798.566
 159  7637.371
 160  8937.633
 161  8493.937
 162  8122.38
 163  7913.253
 164  7194.222
 165  7152.696
 166  7045.709
 167  7067.178
 168  7366.058
 169  7147.851
 170  8962.343
 171  8007.127
 172  7846.009
 173  7941.561
 174  8296.655
 175  8767.979
 176  8378.677
 177  7710.38
 178  7604.89
 179  8065.013
 180  8094.39
 181  7389.517
 182  7458.977
 183  8084.729
 184  7663.027
 185  8640.226
 186  8505.054
 187  7581.885
 188  8146.888
 189  8808.699
 190  8949.877
 191  9167.95
 192  9397.485
 193  8883.136
 194  9133.222
 195  8431.218
 196  8437.512
 197  9480.221
 198  8664.102
 199  8093.94
 200  8414.674
 201  8290.711
 202  8072.686
 203  8088.463
 204  7315.528
 205  7614.058
 206  6885.359
 207  7066.504
 208  6750.152
 209  7043.242
 210  8074.406
 211  8481.901
 212  8247.201
 213  8123.709
 214  7490.951
 215  8361.82
 216  7824.932
 217  8435.081
 218  8363.834
 219  8574.713
 220  8004.278
 221  9051.73
 222  8584.587
 223  7847.948
 224  7452.871
 225  8088.16
 226  7797.819
 227  7118.986
 228  7348.283
 229  6911.742
 230  7524.626
 231  7636.257
 232  8261.233
 233  7636.622
 234  8064.554
 235  8427.68
 236  8739.039
 237  8315.587
 238  8878.075
 239  9128.647
 240  9062.452
 241  8691.074
 242  9598.832
 243  9407.739
 244  8440.835
 245  8932.208
 246  7958.063
 247  8863.497
 248  8774.376
 249  8681.862
 250  8781.633
 251  8874.251
 252  8406.034
 253  8879.85
 254  8960.528
 255  8778.14
