# Input file       =  1205583670.095333_cleaned.dat
# Candidate        =  PSR_0332+5434
# Telescope        =  AR
# Epoch_topo       =  58197.514920084875
# Epoch_bary       =  N/A
# T_sample         =  0.002
# Data Folded      =  7340032
# Data Avg         =  0.080511641247894
# Data StdDev      =  1.00008902920509 
# Profile Bins     =  512
# Profile Avg      =  1154.3244350649  
# Profile StdDev   =  119.743696113817 
# Reduced chi-sqr  =  0.998
# Prob(Noise)      <  0.502   (~0.0 sigma)
# P_topo (ms)      =  714.575525555497  +/- 0.000727
# P'_topo (s/s)    =  -0                +/- 3.84e-10
# P''_topo (s/s^2) =  0                 +/- 1.69e-13
# P_bary (ms)      =  N/A
# P'_bary (s/s)    =  N/A
# P''_bary (s/s^2) =  N/A
# P_orb (s)        =  N/A
# asin(i)/c (s)    =  N/A
# eccentricity     =  N/A
# w (rad)          =  N/A
# T_peri           =  N/A
######################################################
   0  1720.183
   1  1625.607
   2  1459.474
   3  1333.842
   4  1244.62
   5  1179.249
   6  1241.218
   7  1295.051
   8  1165.096
   9  1241.966
  10  1253.334
  11  1143.558
  12  1185.4
  13  1287.667
  14  1262.476
  15  1248.458
  16  1245.264
  17  1213.1
  18  1138.63
  19  1208.992
  20  1246.426
  21  1276.755
  22  1190.569
  23  1170.561
  24  1118.97
  25  1147.548
  26  1131.398
  27  1166.161
  28  1248.519
  29  1206.417
  30  1248.38
  31  1186.828
  32  1168.91
  33  1251.801
  34  1281.37
  35  1195.005
  36  1187.483
  37  1152.407
  38  1195.398
  39  1301.746
  40  1274.369
  41  1222.886
  42  1214.579
  43  1181.7
  44  1154.741
  45  1209.56
  46  1245.963
  47  1233.657
  48  1232.4
  49  1184.752
  50  1062.311
  51  1188.185
  52  1286.242
  53  1280.83
  54  1217.382
  55  1271.989
  56  1268.775
  57  1157.04
  58  1077.939
  59  1035.101
  60  1153.987
  61  1156.154
  62  1282.587
  63  1341.915
  64  1263.485
  65  1210.594
  66  1202.615
  67  1155.436
  68  1219.222
  69  1244.224
  70  1303.68
  71  1210.214
  72  1242.733
  73  1232.192
  74  1206.382
  75  1182.564
  76  1190.12
  77  1163.5
  78  1200.287
  79  1215.304
  80  1163.599
  81  1175.677
  82  1115.548
  83  1135.616
  84  1201.598
  85  1220.412
  86  1235.329
  87  1175.274
  88  1206.792
  89  1229.965
  90  1121.986
  91  1157.865
  92  1197.415
  93  1131.982
  94  1107.673
  95  1121.339
  96  1139.37
  97  1102.578
  98  1090.031
  99  1132.778
 100  1117.783
 101  1133.852
 102  1125.372
 103  1049.954
 104  1083.014
 105  1114.499
 106  1103.933
 107  1141.362
 108  1115.846
 109  1124.973
 110  1127.688
 111  1169.463
 112  1220.058
 113  1162.239
 114  1197.224
 115  1207.074
 116  1213.833
 117  1195.719
 118  1131.11
 119  1179.085
 120  1273.981
 121  1185.636
 122  1145.757
 123  1137.447
 124  1117.63
 125  1115.023
 126  1086.123
 127  1142.619
 128  1199.49
 129  1245.536
 130  1179.288
 131  1246.411
 132  1198.681
 133  1188.456
 134  1228.48
 135  1160.611
 136  1196.83
 137  1276.214
 138  1283.18
 139  1244.984
 140  1274.554
 141  1206.953
 142  1139.755
 143  1135.297
 144  1175.855
 145  1138.78
 146  1111.177
 147  1109.413
 148  1240.825
 149  1265.279
 150  1214.917
 151  1181.158
 152  1162.542
 153  1214.796
 154  1234.416
 155  1188.853
 156  1104.614
 157  1125.715
 158  1148.943
 159  1209.131
 160  1222.147
 161  1149.304
 162  1148.787
 163  1103.928
 164  1185.302
 165  1187.588
 166  1161.285
 167  1141.108
 168  1184.397
 169  1136.401
 170  1145.449
 171  1159.949
 172  1110.051
 173  1119.357
 174  1116.53
 175  1147.399
 176  1122.365
 177  1051.335
 178  1092.022
 179  1133.14
 180  1159.129
 181  1115.713
 182  1116.101
 183  1134.609
 184  1080.34
 185  1042.269
 186  1072.105
 187  1078.397
 188  1043.306
 189  1123.923
 190  1102.29
 191  1088.54
 192  1182.25
 193  1144.117
 194  1133.937
 195  1184.227
 196  1149.141
 197  1116.466
 198  1140.509
 199  1111.091
 200  1061.714
 201  1132.735
 202  1130.679
 203  1180.377
 204  1155.803
 205  1168.12
 206  1170.069
 207  1040.435
 208  995.0819
 209  1007.434
 210  1011.875
 211  1043.84
 212  1135.05
 213  1144.201
 214  1070.657
 215  1079.35
 216  1096.99
 217  1061.606
 218  1035.8
 219  1083.913
 220  1085.149
 221  1164.501
 222  1158.109
 223  1076.423
 224  1091.952
 225  1167.55
 226  1168.142
 227  1149.589
 228  1035.355
 229  1098.553
 230  1035.62
 231  1006.648
 232  977.9437
 233  1057.134
 234  1071.623
 235  1130.966
 236  1150.382
 237  1072.044
 238  1055.461
 239  1093.634
 240  1064.244
 241  1020.281
 242  1046.589
 243  1022.857
 244  1102.942
 245  1147.763
 246  1103.924
 247  1079.648
 248  1082.344
 249  1074.557
 250  1055.505
 251  1102.108
 252  1064.432
 253  1082.738
 254  1166.796
 255  1139.573
 256  1080.011
 257  1139.128
 258  1151.553
 259  1096.582
 260  1029.942
 261  1129.838
 262  1118.965
 263  1116.582
 264  1125.037
 265  1132.106
 266  1172.923
 267  1163.097
 268  1082.384
 269  1183.287
 270  1174.343
 271  1081.635
 272  1147.324
 273  1195.304
 274  1180.257
 275  1140.569
 276  1111.629
 277  1167.778
 278  1225.329
 279  1084.044
 280  1126.413
 281  1115.713
 282  1104.009
 283  1156.057
 284  1092.771
 285  1081.986
 286  1100.641
 287  1083.876
 288  1118.518
 289  1116.769
 290  1038.651
 291  1119.29
 292  1092.65
 293  1095.53
 294  1182.429
 295  1137.944
 296  1185.557
 297  1132.356
 298  1173.377
 299  1139.062
 300  1144.76
 301  1176.237
 302  1134.893
 303  1146.566
 304  1197.459
 305  1163.826
 306  1115.488
 307  1121.733
 308  1161.98
 309  1203.946
 310  1270.762
 311  1235.701
 312  1197.166
 313  1171.413
 314  1076.456
 315  1156.226
 316  1179.312
 317  1152.536
 318  1084.594
 319  1045.698
 320  1054.874
 321  1113.831
 322  1079.468
 323  1083.502
 324  1075.243
 325  1118.355
 326  1094.599
 327  1010.629
 328  1061.166
 329  1140.739
 330  1139.233
 331  1089.425
 332  1073.643
 333  1133.853
 334  1155.769
 335  1161.02
 336  1047.772
 337  1146.455
 338  1195.566
 339  1144.235
 340  1207.718
 341  1179.396
 342  1085.196
 343  1181.814
 344  1196.973
 345  1185.295
 346  1142.469
 347  1160.57
 348  1133.743
 349  1162.734
 350  1224.091
 351  1110.584
 352  1068.494
 353  1124.09
 354  1159.643
 355  1169.012
 356  1165.766
 357  1210.291
 358  1158.857
 359  1086.486
 360  1093.768
 361  1180.159
 362  1075.996
 363  1039.62
 364  1134.781
 365  1128.717
 366  1090.762
 367  1147.24
 368  1153.919
 369  1070.498
 370  1099.788
 371  1107.217
 372  1100.549
 373  1172.154
 374  1230.024
 375  1209.836
 376  1191.467
 377  1263.59
 378  1091.928
 379  1105.398
 380  1156.698
 381  1154.35
 382  1159.033
 383  1184.209
 384  1152.752
 385  1193.302
 386  1236.278
 387  1221.957
 388  1141.199
 389  1051.911
 390  1016.513
 391  1018.948
 392  1088.138
 393  1048.893
 394  1111.625
 395  1188.991
 396  1201.681
 397  1119.641
 398  1194.345
 399  1165.772
 400  1154.882
 401  1104.333
 402  1145.348
 403  1126.428
 404  1124.094
 405  1156.627
 406  1145.522
 407  1117.796
 408  1054.437
 409  1123.424
 410  1090.883
 411  1115.18
 412  1165.021
 413  1120.793
 414  1016.059
 415  1085.692
 416  1041.31
 417  1016.395
 418  1067.011
 419  1153.29
 420  1124.732
 421  1116.024
 422  1063.241
 423  1072.438
 424  1092.416
 425  1004.161
 426  1035.967
 427  1038.514
 428  1139.752
 429  1045.473
 430  1032.704
 431  1114.068
 432  1068.548
 433  1016.949
 434  945.9079
 435  972.1652
 436  972.9841
 437  1020.162
 438  1100.359
 439  1162.068
 440  1130.727
 441  1145.093
 442  1092.879
 443  1025.255
 444  1092.652
 445  1169.423
 446  1144.364
 447  1138.928
 448  1081.497
 449  1054.544
 450  1027.817
 451  1101.141
 452  1213.558
 453  1180.38
 454  1149.462
 455  1048.179
 456  1049.384
 457  1102.006
 458  1084.822
 459  1112.418
 460  1053.299
 461  1096.456
 462  1052.914
 463  1059.647
 464  1027.213
 465  1087.247
 466  1104.77
 467  1123.742
 468  1186.894
 469  1230.142
 470  1198.923
 471  1130.714
 472  1149.093
 473  1177.777
 474  1207.053
 475  1217.601
 476  1194.108
 477  1214.444
 478  1140.355
 479  1116.179
 480  1189.246
 481  1291.975
 482  1274.027
 483  1251.729
 484  1233.721
 485  1273.582
 486  1322.967
 487  1252.864
 488  1186.316
 489  1258.45
 490  1277.632
 491  1188.552
 492  1221.873
 493  1294.148
 494  1277.314
 495  1228.706
 496  1243.662
 497  1221.108
 498  1209.555
 499  1200.788
 500  1234.451
 501  1288.707
 502  1388.893
 503  1264.665
 504  1253.156
 505  1388.256
 506  1342.818
 507  1274.183
 508  1471.25
 509  1538.876
 510  1543.25
 511  1664.089
