# Input file       =  1205927696.108282_cleaned.dat
# Candidate        =  PSR_0332+5434
# Telescope        =  AR
# Epoch_topo       =  58201.496702642151
# Epoch_bary       =  N/A
# T_sample         =  0.002
# Data Folded      =  7340032
# Data Avg         =  0.0761744268988719
# Data StdDev      =  1.00013630386455 
# Profile Bins     =  512
# Profile Avg      =  1092.08002449058 
# Profile StdDev   =  119.749356452339 
# Reduced chi-sqr  =  1.000
# Prob(Noise)      <  0.495   (~0.0 sigma)
# P_topo (ms)      =  714.573698393653  +/- 0.000459
# P'_topo (s/s)    =  -0                +/- 2.42e-10
# P''_topo (s/s^2) =  0                 +/- 1.07e-13
# P_bary (ms)      =  N/A
# P'_bary (s/s)    =  N/A
# P''_bary (s/s^2) =  N/A
# P_orb (s)        =  N/A
# asin(i)/c (s)    =  N/A
# eccentricity     =  N/A
# w (rad)          =  N/A
# T_peri           =  N/A
######################################################
   0  1117.235
   1  1099.553
   2  1079.018
   3  1026.742
   4  1024.271
   5  1048.76
   6  1044.892
   7  1071.752
   8  1122.124
   9  1146.519
  10  1172.283
  11  1096.59
  12  1168.706
  13  1138.155
  14  1089.249
  15  1089.476
  16  1132.355
  17  1138.565
  18  1182.539
  19  1205.318
  20  1092.858
  21  1082.91
  22  1150.02
  23  1144.007
  24  1195.343
  25  1221.395
  26  1199.883
  27  1137.366
  28  1072.344
  29  1050.52
  30  1032.069
  31  1074.63
  32  1161.02
  33  1076.135
  34  1044.807
  35  1053.126
  36  992.9587
  37  1097.002
  38  1159.121
  39  1124.261
  40  1139.194
  41  1063.821
  42  1107.459
  43  1078.641
  44  1062.97
  45  1084.217
  46  1134.665
  47  1161.345
  48  1175.277
  49  1156.354
  50  1081.873
  51  1174.795
  52  1099.161
  53  1110.832
  54  1060.801
  55  1027.28
  56  1019.774
  57  1050.272
  58  1078.953
  59  1120.882
  60  1123.409
  61  1036.324
  62  1044.701
  63  1038.156
  64  1031.603
  65  1057.489
  66  1190.211
  67  1106.442
  68  1046.297
  69  1142.319
  70  1172.106
  71  1138.353
  72  1139.23
  73  1161.848
  74  1178.973
  75  1207.901
  76  1107.885
  77  1037.384
  78  1103.349
  79  1071.906
  80  1157.443
  81  1054.855
  82  1077.394
  83  1079
  84  1109.742
  85  1065.66
  86  1051.034
  87  1004.629
  88  1031.25
  89  1047.341
  90  998.8817
  91  1092.457
  92  1135.356
  93  1130.669
  94  1012.669
  95  993.7285
  96  1032.198
  97  1081.084
  98  1078.703
  99  1052.183
 100  1037.473
 101  1045.641
 102  1056.501
 103  1072.576
 104  1121.297
 105  1127.618
 106  1106.209
 107  1045.979
 108  1050.038
 109  1042.304
 110  1040.303
 111  1034.828
 112  1109.828
 113  1133.29
 114  1102.699
 115  1116.122
 116  1072.449
 117  984.6537
 118  989.5586
 119  1064.214
 120  1071.462
 121  1119.962
 122  1125.874
 123  1142.306
 124  1112.639
 125  1153.817
 126  1204.027
 127  1174.223
 128  1184.616
 129  1178.051
 130  1166.57
 131  1220.539
 132  1194.295
 133  1186.139
 134  1210.255
 135  1279.634
 136  1280.994
 137  1249.999
 138  1223.053
 139  1208.93
 140  1201.423
 141  1246.879
 142  1282.569
 143  1205.754
 144  1165.786
 145  1240.443
 146  1260.775
 147  1204.652
 148  1195.151
 149  1226.201
 150  1275.858
 151  1221.833
 152  1245.769
 153  1248.783
 154  1136.237
 155  1143.95
 156  1191.412
 157  1133.186
 158  1070.184
 159  1152.48
 160  1169.75
 161  1228.468
 162  1080.238
 163  1046.391
 164  1142.885
 165  1105.703
 166  1092.885
 167  1120.612
 168  1051.678
 169  1032.611
 170  1112.716
 171  1098.417
 172  1088.973
 173  1104.976
 174  1050.255
 175  1122.999
 176  1121.435
 177  1072.012
 178  1016.04
 179  1003.744
 180  1007.862
 181  928.6901
 182  939.2975
 183  1032.316
 184  979.8668
 185  1008.68
 186  1086.63
 187  1109.805
 188  1033.937
 189  1069.198
 190  1102.156
 191  1043.015
 192  1027.118
 193  969.1429
 194  941.5891
 195  1005.403
 196  995.2905
 197  986.0074
 198  1006.209
 199  996.556
 200  989.9954
 201  997.9379
 202  983.9271
 203  984.8832
 204  1011.084
 205  1005.029
 206  963.0612
 207  1004.389
 208  1035.465
 209  983.067
 210  981.6064
 211  1017.051
 212  1108.169
 213  1036.703
 214  951.0479
 215  941.0345
 216  870.4827
 217  869.9156
 218  874.8748
 219  969.2855
 220  904.2704
 221  907.7598
 222  914.0544
 223  943.1193
 224  896.29
 225  932.2213
 226  968.5635
 227  934.0679
 228  938.199
 229  932.4448
 230  920.1025
 231  968.9146
 232  957.0495
 233  1021.532
 234  1097.406
 235  1058.613
 236  1067.592
 237  1049.148
 238  1020.338
 239  1071.578
 240  1027.808
 241  1106.995
 242  1086.683
 243  1021.297
 244  1132.321
 245  1108.178
 246  999.1937
 247  920.1345
 248  1057.121
 249  1087.587
 250  1014.394
 251  1056.708
 252  1046.008
 253  1100.036
 254  1123.441
 255  1119.79
 256  1036.93
 257  1082.841
 258  1082.716
 259  1071.319
 260  1076.464
 261  1091.617
 262  1069.744
 263  1099.25
 264  1054.377
 265  1082.569
 266  1118.63
 267  1100.855
 268  1162.524
 269  1164.66
 270  1140.722
 271  1085.189
 272  1191.901
 273  1254.944
 274  1220.062
 275  1139.944
 276  1189.624
 277  1209.239
 278  1236.265
 279  1199.652
 280  1150.454
 281  1111.08
 282  1134.381
 283  1165.499
 284  1094.388
 285  1161.578
 286  1122.599
 287  1103.177
 288  1081.124
 289  1061.209
 290  1139.979
 291  1084.514
 292  1064.932
 293  1067.078
 294  1048.232
 295  1056.211
 296  1122.004
 297  1150.797
 298  1084.623
 299  1057.823
 300  1115.044
 301  1030.666
 302  1123.931
 303  1155.886
 304  1173.809
 305  1203.967
 306  1180.858
 307  1127.299
 308  1099.681
 309  1149.938
 310  1193.87
 311  1140.502
 312  1152.196
 313  1152.509
 314  1051.672
 315  1111.332
 316  1061.635
 317  991.788
 318  1086.401
 319  1105.4
 320  1037.672
 321  1095.26
 322  1140.872
 323  1100.72
 324  1124.273
 325  1032.43
 326  1054.074
 327  1124.501
 328  1164.57
 329  1143.961
 330  1143.081
 331  1151.226
 332  1071.705
 333  1067.935
 334  1095.219
 335  1134.555
 336  1185.202
 337  1213.65
 338  1175.755
 339  1136.183
 340  1112.271
 341  1184.072
 342  1116.37
 343  1043.713
 344  1025.302
 345  1044.894
 346  1138.956
 347  1076.839
 348  1008.249
 349  1055.727
 350  1034.492
 351  1008.819
 352  1132.036
 353  1182.547
 354  1197.56
 355  1102.529
 356  1031.043
 357  989.2001
 358  1007.377
 359  1005.896
 360  986.4288
 361  1079.797
 362  1097.257
 363  1017.871
 364  942.1704
 365  1071.1
 366  1104.389
 367  967.8464
 368  1016.739
 369  1054.832
 370  1064.95
 371  972.3712
 372  1044.581
 373  1053.763
 374  1079.218
 375  1078.766
 376  1024.72
 377  930.2649
 378  860.9879
 379  871.4261
 380  989.1374
 381  1022.309
 382  864.6526
 383  883.3136
 384  970.6635
 385  1066.136
 386  1062.805
 387  982.2106
 388  1072.057
 389  1120.354
 390  1094.819
 391  1121.409
 392  1119.383
 393  1060.682
 394  1027.277
 395  1091.197
 396  1025.313
 397  1000.769
 398  1077.149
 399  1036.975
 400  1078.709
 401  1066.03
 402  994.2559
 403  1025.693
 404  1046.655
 405  1052.595
 406  1086.213
 407  1072.797
 408  1083.684
 409  1063.068
 410  1065.423
 411  1085.786
 412  1096.919
 413  1171.451
 414  1103.612
 415  1125.56
 416  1153.053
 417  1070.405
 418  1135.161
 419  1082.713
 420  1091.774
 421  1076.063
 422  1011.451
 423  1040.604
 424  1027.368
 425  1084.458
 426  1101.533
 427  1073.379
 428  1126.166
 429  1061.594
 430  1180.992
 431  1206.495
 432  1275.351
 433  1393.446
 434  1490.791
 435  1633.81
 436  1509.518
 437  1347.541
 438  1165.886
 439  1067.74
 440  995.1061
 441  915.5045
 442  940.1232
 443  1025.01
 444  992.3657
 445  1001.743
 446  990.799
 447  997.6274
 448  1013.2
 449  1074.614
 450  1049.153
 451  1006.567
 452  1055.426
 453  1098.089
 454  1114.446
 455  1208.479
 456  1183.775
 457  1149.165
 458  1075.641
 459  1113.837
 460  1116.529
 461  1087.533
 462  1176.372
 463  1152.865
 464  1094.844
 465  1076.852
 466  1090.841
 467  1047.587
 468  1050.212
 469  1086.557
 470  1080.252
 471  1081.283
 472  1089.769
 473  1082.54
 474  1146.926
 475  1113.084
 476  1112.714
 477  1071.401
 478  1084.665
 479  1102.723
 480  1248.78
 481  1231.772
 482  1144.318
 483  1187.146
 484  1182.506
 485  1074.319
 486  1103.662
 487  1154.891
 488  1107.2
 489  1129.321
 490  1241.573
 491  1248.103
 492  1174.546
 493  1100.109
 494  1183.635
 495  1219.663
 496  1220.34
 497  1198.023
 498  1190.656
 499  1172.986
 500  1142.15
 501  1143.688
 502  1136.118
 503  1122.21
 504  1172.68
 505  1129.478
 506  1042.279
 507  1095.997
 508  1090.777
 509  1061.233
 510  1129.096
 511  1184.394
