# Input file       =  1205396186.107609_cleaned.dat
# Candidate        =  PSR_0332+5434
# Telescope        =  AR
# Epoch_topo       =  58195.344966523255
# Epoch_bary       =  N/A
# T_sample         =  0.002
# Data Folded      =  7405568
# Data Avg         =  0.132297304549575
# Data StdDev      =  4.29299742258987 
# Profile Bins     =  512
# Profile Avg      =  1913.3745151483  
# Profile StdDev   =  516.303220843076 
# Reduced chi-sqr  =  2.442
# Prob(Noise)      <  1.98e-63   (~16.8 sigma)
# P_topo (ms)      =  714.576383713898  +/- 2.16e-05
# P'_topo (s/s)    =  -0                +/- 1.13e-11
# P''_topo (s/s^2) =  0                 +/- 4.95e-15
# P_bary (ms)      =  N/A
# P'_bary (s/s)    =  N/A
# P''_bary (s/s^2) =  N/A
# P_orb (s)        =  N/A
# asin(i)/c (s)    =  N/A
# eccentricity     =  N/A
# w (rad)          =  N/A
# T_peri           =  N/A
######################################################
   0  1403.568
   1  1524.49
   2  1210.747
   3  1355.17
   4  1610.744
   5  2074.85
   6  1732.626
   7  1381.5
   8  1438.965
   9  1598.852
  10  2132.057
  11  2396.425
  12  2848.128
  13  3162.108
  14  2532.532
  15  1650.714
  16  916.0894
  17  1185.398
  18  1541.519
  19  1757.216
  20  1633.733
  21  2058.082
  22  2040.518
  23  1621.926
  24  1113.115
  25  1368.68
  26  1668.545
  27  1600.314
  28  2100.023
  29  2811.509
  30  2685.759
  31  2172.186
  32  1440.188
  33  1108.91
  34  1139.168
  35  1489.534
  36  1702.94
  37  1708.381
  38  2040.156
  39  1752.801
  40  1093.267
  41  1094.002
  42  1313.767
  43  2218.263
  44  2877.176
  45  2826.839
  46  2694.926
  47  2666.355
  48  2049.203
  49  1326.603
  50  1523.087
  51  1957.215
  52  1932.931
  53  1935.04
  54  2480.472
  55  2690.399
  56  1902.702
  57  1501.852
  58  1451.476
  59  2006.994
  60  2303.214
  61  3022.382
  62  3613.723
  63  2974.683
  64  2271.199
  65  1920.324
  66  1536.637
  67  1664.07
  68  1909.762
  69  1707.318
  70  2153.432
  71  2451.298
  72  2195.539
  73  1709.128
  74  1516.171
  75  1768.251
  76  1925.615
  77  2450.623
  78  2942.48
  79  3193.629
  80  3100.524
  81  2303.438
  82  1910.96
  83  1932.191
  84  1792.088
  85  1526.914
  86  1527.735
  87  2300.173
  88  2461.521
  89  1900.589
  90  1687.983
  91  1792.91
  92  2158.28
  93  2626.088
  94  2930.98
  95  3096.307
  96  3117.052
  97  2551.586
  98  1864.24
  99  1430.176
 100  1527.688
 101  1473.983
 102  1426.907
 103  1951.686
 104  2297.765
 105  2230.78
 106  1483.347
 107  1229.104
 108  1375.908
 109  1862.016
 110  2190.399
 111  2559.09
 112  2749.825
 113  2404.995
 114  2011.805
 115  1618.792
 116  1465.741
 117  1354.775
 118  1151.052
 119  1384.405
 120  1891.208
 121  1978.865
 122  1507.579
 123  1028.192
 124  1399.81
 125  1755.074
 126  1972.844
 127  2568.009
 128  2874.957
 129  2768.445
 130  1905.228
 131  1291.775
 132  1185.165
 133  1331.517
 134  1340.75
 135  1428.542
 136  1939.352
 137  2024.292
 138  1512.346
 139  1242.898
 140  1098.528
 141  1324.154
 142  1413.288
 143  1979.369
 144  2536.701
 145  2718.38
 146  2717.932
 147  2220.791
 148  1318.58
 149  1034.125
 150  959.3757
 151  1146.295
 152  1309.92
 153  1725.693
 154  2131.096
 155  1896.608
 156  1384.362
 157  1600.082
 158  1724.422
 159  1808.234
 160  2394.242
 161  3058.474
 162  3031.081
 163  2387.886
 164  1835.92
 165  1542.378
 166  1734.703
 167  1663.847
 168  1362.727
 169  1556.654
 170  2057.597
 171  2135.822
 172  1509.201
 173  1426.606
 174  2079.377
 175  2053.075
 176  2122.762
 177  2566.107
 178  2954.773
 179  2564.826
 180  1980.301
 181  1584.632
 182  1545.924
 183  1918.528
 184  1719.767
 185  1833.696
 186  2321.353
 187  2662.651
 188  2042.64
 189  1563.616
 190  1873.043
 191  2170.865
 192  2301.557
 193  2396.829
 194  2844.205
 195  2629.156
 196  2090.443
 197  1818.869
 198  1601.31
 199  2002.988
 200  2106.237
 201  1940.165
 202  1799.325
 203  1921.821
 204  2149.375
 205  1413.91
 206  1361.286
 207  1531.21
 208  2125.406
 209  2343.195
 210  2747.193
 211  2835.697
 212  2469.271
 213  1926.61
 214  1361.66
 215  1419.28
 216  1367.987
 217  1636.264
 218  1748.906
 219  2262.065
 220  2226.177
 221  1334.826
 222  1108.239
 223  1557.172
 224  1600.681
 225  1797.585
 226  2360.525
 227  2966.067
 228  2572.797
 229  1968.967
 230  1320.799
 231  1153.792
 232  1210.061
 233  1364.79
 234  1529.988
 235  1203.168
 236  1829.837
 237  1640.601
 238  666.139
 239  837.5615
 240  1196.008
 241  1401.783
 242  1892.107
 243  2404.036
 244  2854.232
 245  2819.394
 246  2458.534
 247  1565.173
 248  1307.304
 249  1273.467
 250  1623.723
 251  1381.446
 252  1556.889
 253  1895.01
 254  1340.423
 255  1390.9
 256  1910.511
 257  1925.066
 258  1633.782
 259  1592.093
 260  2455.26
 261  2976.481
 262  2558.387
 263  2001.287
 264  1609.472
 265  1476.699
 266  1548.783
 267  1500.125
 268  1754.765
 269  2179.073
 270  2125.55
 271  1680.336
 272  1401.441
 273  1963.85
 274  1876.501
 275  1854.234
 276  2343.164
 277  2879.658
 278  2708.062
 279  2217.843
 280  1604.089
 281  1590.167
 282  1625.227
 283  1800.866
 284  1939.056
 285  2165.611
 286  2490.217
 287  2208.736
 288  1815.236
 289  1817.475
 290  1816.618
 291  2036.044
 292  2603.651
 293  3383.631
 294  3352.271
 295  2311.014
 296  1721.851
 297  1803.835
 298  2143.33
 299  2622.252
 300  2515.448
 301  3295.959
 302  4063.211
 303  3947.168
 304  3349.91
 305  3139.72
 306  2912.615
 307  2496.744
 308  2699.14
 309  2991.559
 310  3145.082
 311  3124.402
 312  2292.954
 313  1679.958
 314  1913.142
 315  1969.379
 316  1699.196
 317  1955.872
 318  2447.42
 319  2445.302
 320  1986.665
 321  1532.174
 322  1540.767
 323  2136.814
 324  2259.205
 325  2486.663
 326  2633.406
 327  2995.96
 328  2798.467
 329  1954.888
 330  1328.667
 331  1274.149
 332  1113.056
 333  1107.747
 334  1593.781
 335  1925.802
 336  2004.745
 337  1697.845
 338  1251.324
 339  1862.228
 340  1844.853
 341  1914.946
 342  2455.995
 343  2794.815
 344  2875.433
 345  2078.227
 346  1571.4
 347  1274.533
 348  1086.069
 349  1234.612
 350  1511.644
 351  1615.833
 352  1948.803
 353  1577.086
 354  922.9365
 355  1241.698
 356  1623.158
 357  1992.448
 358  2220.489
 359  2796.7
 360  2895.714
 361  2279.625
 362  1756.631
 363  1125.666
 364  1505.282
 365  1384.921
 366  1343.522
 367  1422.518
 368  1784.206
 369  1867.654
 370  1215.677
 371  1300.521
 372  1393.933
 373  1460.781
 374  1861.972
 375  2269.602
 376  2483.838
 377  2186.316
 378  1911.373
 379  1414.381
 380  1216.017
 381  1103.246
 382  1384.521
 383  1525.948
 384  1474.275
 385  1728.196
 386  1518.81
 387  742.3042
 388  1010.681
 389  1204.061
 390  1588.044
 391  2193.334
 392  2910.609
 393  2938.81
 394  2180.647
 395  1551.166
 396  1393.938
 397  1353.414
 398  1324.866
 399  1375.924
 400  1565.907
 401  2505.326
 402  2415.585
 403  1607.366
 404  1076.678
 405  1267.455
 406  1924.958
 407  1969.886
 408  2647.628
 409  2906.246
 410  2813.194
 411  1903.708
 412  1302.015
 413  1175.089
 414  1245.665
 415  1343.315
 416  1478.662
 417  1679.718
 418  1976.193
 419  1627.375
 420  1016.515
 421  1140.988
 422  1744.848
 423  1811.798
 424  1986.569
 425  2538.114
 426  3329.212
 427  2964.091
 428  1778.198
 429  1032.121
 430  1249.556
 431  2013.395
 432  2000.188
 433  1810.147
 434  2094.948
 435  2118.208
 436  1727.488
 437  1369.635
 438  1533.134
 439  1966.521
 440  2306.093
 441  2666.28
 442  3059.702
 443  2920.451
 444  2346.447
 445  1892.515
 446  1736.91
 447  1820.554
 448  1776.652
 449  1895.937
 450  2172.814
 451  1798.447
 452  1345.078
 453  827.1821
 454  1182.301
 455  1829.422
 456  1895.896
 457  2308.559
 458  2582.016
 459  2858.27
 460  2164.023
 461  1398.429
 462  1366.988
 463  1138.032
 464  1593.308
 465  1487.571
 466  1766.542
 467  2617.569
 468  2297.173
 469  1525.512
 470  968.0272
 471  1083.842
 472  1558.894
 473  2299.529
 474  2666.598
 475  3132.527
 476  2998.777
 477  2141.738
 478  1464.691
 479  1598.817
 480  1372.637
 481  1450.842
 482  1053.197
 483  1460.731
 484  2137.83
 485  1815.698
 486  1023.507
 487  1086.905
 488  1527.546
 489  1902.553
 490  1946.607
 491  2637.605
 492  2750.107
 493  2367.112
 494  1370.165
 495  929.1256
 496  961.7121
 497  1207.321
 498  1334.324
 499  1140.595
 500  2144.187
 501  2039.479
 502  1542.291
 503  1511.405
 504  1625.125
 505  1321.843
 506  1563.48
 507  2192.781
 508  2772.098
 509  3159.462
 510  2648.475
 511  1490.209
