# Input file       =  1205482329.110533_cleaned.dat
# Candidate        =  PSR_0332+5434
# Telescope        =  AR
# Epoch_topo       =  58196.341992020061
# Epoch_bary       =  N/A
# T_sample         =  0.002
# Data Folded      =  7405568
# Data Avg         =  0.541092883099069
# Data StdDev      =  6.48946191600463 
# Profile Bins     =  512
# Profile Avg      =  7826.71276651428 
# Profile StdDev   =  780.464034555691 
# Reduced chi-sqr  =  2.886
# Prob(Noise)      <  2.63e-94   (~20.6 sigma)
# P_topo (ms)      =  714.575988509758  +/- 1.4e-05
# P'_topo (s/s)    =  -0                +/- 7.33e-12
# P''_topo (s/s^2) =  0                 +/- 3.21e-15
# P_bary (ms)      =  N/A
# P'_bary (s/s)    =  N/A
# P''_bary (s/s^2) =  N/A
# P_orb (s)        =  N/A
# asin(i)/c (s)    =  N/A
# eccentricity     =  N/A
# w (rad)          =  N/A
# T_peri           =  N/A
######################################################
   0  8146.416
   1  9077.579
   2  9236.201
   3  8558.408
   4  7628.655
   5  7583.501
   6  7158.902
   7  7497.057
   8  7597.955
   9  8495.285
  10  9065.276
  11  7933.406
  12  6603.828
  13  6493.666
  14  6861.285
  15  7282.82
  16  8035.836
  17  8887.721
  18  9480.783
  19  8425.716
  20  7352.839
  21  6289.352
  22  6503.312
  23  6747.218
  24  7044.548
  25  8169.515
  26  9457.406
  27  9139.188
  28  7371.309
  29  6282.53
  30  6305.769
  31  6963.046
  32  7809.681
  33  9260.651
  34  10681.9
  35  10945.73
  36  10479.11
  37  9376.1
  38  8229.166
  39  7980.778
  40  7476.064
  41  7351.495
  42  8065.075
  43  8852.021
  44  8766.758
  45  6810.141
  46  6451.726
  47  6588.633
  48  6886.778
  49  7367.546
  50  8383.031
  51  9324.587
  52  8866.613
  53  7615.681
  54  6728.949
  55  6585.433
  56  6596.474
  57  6487.321
  58  6795.526
  59  8223.267
  60  8277.648
  61  7021.647
  62  6178.416
  63  6238.037
  64  6527.797
  65  6990.265
  66  8099.779
  67  9147.081
  68  9215.062
  69  8565.309
  70  7382.477
  71  7004.296
  72  7265.956
  73  7512.104
  74  7553.268
  75  8390.629
  76  8844.73
  77  8306.127
  78  7392.759
  79  7267.927
  80  7565.444
  81  7434.496
  82  7903.817
  83  8712.352
  84  9470.581
  85  9312.443
  86  7831.284
  87  7168.977
  88  7034.035
  89  7372.737
  90  7759.359
  91  8386.187
  92  8780.806
  93  8733.145
  94  7386.794
  95  6249.454
  96  6484.277
  97  7263.158
  98  7627.358
  99  8270.239
 100  9452.912
 101  9883.876
 102  8088.148
 103  7255.901
 104  6824.444
 105  7203.105
 106  7675.667
 107  7802.359
 108  8616.695
 109  9258.484
 110  8589.147
 111  6840.487
 112  6163.693
 113  6515.654
 114  6534.731
 115  7729.431
 116  8924.245
 117  9796.09
 118  9058.098
 119  7690.292
 120  7061.565
 121  6506.439
 122  7002.137
 123  7030.257
 124  8095.818
 125  8812.482
 126  9013.812
 127  7448.131
 128  6351.395
 129  6780.99
 130  6597.849
 131  6935.246
 132  8315.854
 133  9401.753
 134  9665.526
 135  8222.722
 136  7693.573
 137  7217.734
 138  7480.391
 139  7997.597
 140  7911.839
 141  8439.99
 142  9548.019
 143  9289.856
 144  7657.951
 145  7136.633
 146  7193.582
 147  7291.837
 148  7361.615
 149  8814.685
 150  9389.272
 151  9088.65
 152  8233.998
 153  7385.839
 154  7383.013
 155  7619.86
 156  7483.613
 157  7948.984
 158  8972.772
 159  8670.828
 160  7932.988
 161  7383.845
 162  7385.251
 163  7556.117
 164  7495.251
 165  8189.217
 166  9338.76
 167  9647.693
 168  9056.446
 169  7883.711
 170  7802.973
 171  8233.624
 172  8486.24
 173  8159.071
 174  8641.925
 175  9526.847
 176  8912.974
 177  7596.472
 178  7403.902
 179  7481.955
 180  8673.032
 181  8835.354
 182  9295.718
 183  10072.75
 184  9518.012
 185  8441.805
 186  7550.063
 187  7601.722
 188  7399.561
 189  7766.359
 190  8432.444
 191  9364.316
 192  8880.031
 193  8160.702
 194  6606.037
 195  6436.92
 196  6910.175
 197  7252.861
 198  8078.612
 199  9430.06
 200  9341.564
 201  8469.658
 202  7394.41
 203  6744.751
 204  6509.585
 205  7253.936
 206  7779.59
 207  8169.406
 208  9759.557
 209  9094.188
 210  7082.667
 211  6449.588
 212  6793.449
 213  7361.502
 214  7734.111
 215  8564.771
 216  9870.761
 217  9903.93
 218  9076.753
 219  7907.614
 220  7906.021
 221  8063.693
 222  7434.984
 223  7935.493
 224  8666.021
 225  9245.463
 226  7923.086
 227  7534.062
 228  7317.258
 229  7398.517
 230  7093.48
 231  7979.114
 232  9139.367
 233  9830.894
 234  9353.654
 235  8413.928
 236  7849.196
 237  7606.807
 238  7587.493
 239  7593.65
 240  8315.63
 241  9107.583
 242  8815.954
 243  7622.32
 244  7025.561
 245  7419.624
 246  7357.322
 247  8018.747
 248  8325.794
 249  9019.283
 250  8871.575
 251  8379.611
 252  7595.744
 253  7367.761
 254  8027.067
 255  8232.245
 256  8394.218
 257  8797.675
 258  9215.394
 259  8150.196
 260  6792.891
 261  6961.334
 262  7655.389
 263  8196.038
 264  8647.67
 265  9497.079
 266  9658.181
 267  8868.689
 268  7501.708
 269  6467.08
 270  7180.229
 271  7520.598
 272  7774.574
 273  8492.37
 274  9251.366
 275  8576.724
 276  6966.836
 277  6499.566
 278  6722.412
 279  6810.434
 280  7396.068
 281  8402.305
 282  9674.584
 283  9273.317
 284  7608.144
 285  6642.703
 286  6312.954
 287  6785.874
 288  7007.823
 289  7626.431
 290  8554.624
 291  8938.931
 292  8026.628
 293  6675.971
 294  6547.893
 295  6981.065
 296  7442.872
 297  8084.792
 298  8922.393
 299  9713.017
 300  9057.626
 301  8152.225
 302  7014.488
 303  7181.128
 304  7655.806
 305  7230.329
 306  8292.604
 307  9040.826
 308  8661.273
 309  7632.216
 310  6737.798
 311  7051.925
 312  7404.895
 313  7056.967
 314  8012.604
 315  9075.935
 316  8965.156
 317  7969.553
 318  7152.26
 319  7166.84
 320  7059.482
 321  6936.271
 322  7673.316
 323  8370.509
 324  8730.429
 325  7810.718
 326  6808.365
 327  6631.055
 328  7265.324
 329  7542.85
 330  7938.933
 331  8944.465
 332  9573.771
 333  8573.421
 334  7618.171
 335  7399.449
 336  7747.437
 337  7494.361
 338  7294.687
 339  8507.318
 340  8748.296
 341  8246.405
 342  7053.168
 343  6249.76
 344  6921.396
 345  7681.207
 346  7740.064
 347  8507.346
 348  9490.196
 349  8500.904
 350  7505.03
 351  6712.549
 352  6686.46
 353  6973.473
 354  7450.625
 355  7707.924
 356  8333.287
 357  8590.22
 358  6983.688
 359  5426.424
 360  5780.629
 361  6610.03
 362  7118.9
 363  7708.742
 364  8700.702
 365  8994.816
 366  8553.915
 367  7424.85
 368  6746.975
 369  7002.32
 370  6440.489
 371  7317.356
 372  8276.552
 373  9091.352
 374  8552.219
 375  6859.742
 376  6433.43
 377  6104.976
 378  6965.027
 379  7415.411
 380  8203.21
 381  9122.521
 382  9328.137
 383  8320.488
 384  6803.639
 385  6158.304
 386  6200.376
 387  6173.515
 388  7000.251
 389  8088.615
 390  8873.504
 391  8221.623
 392  6700.216
 393  6177.248
 394  6307.077
 395  6501.646
 396  7277.093
 397  8704.913
 398  8970.257
 399  8647.447
 400  7323.239
 401  6810.148
 402  7197.963
 403  7477.235
 404  7349.86
 405  7206.578
 406  8491.672
 407  8659.251
 408  7412.231
 409  7074.535
 410  7638.917
 411  7345.34
 412  7538.145
 413  8143.425
 414  9201.524
 415  9256.328
 416  8310.278
 417  7727.951
 418  6920.14
 419  7586.795
 420  7721.224
 421  7627.402
 422  8840.927
 423  8764.204
 424  7909.479
 425  6819.973
 426  6895.948
 427  7743.271
 428  7742.248
 429  7876.042
 430  8566.432
 431  9084.359
 432  8452.511
 433  7694.585
 434  7239.157
 435  7101.375
 436  7769.216
 437  7765.588
 438  8091.856
 439  9009.97
 440  8669.074
 441  7423.87
 442  6070.822
 443  6516.553
 444  7021.947
 445  7580.281
 446  8268.267
 447  9639.727
 448  9408.434
 449  8658.1
 450  7320.818
 451  6505.683
 452  7059.828
 453  7231.789
 454  7427.292
 455  8238.389
 456  9011.573
 457  8005.677
 458  6396.234
 459  6022.865
 460  6563.227
 461  6988.797
 462  7601.352
 463  8368.513
 464  8994.375
 465  8230.104
 466  7556.792
 467  6772.201
 468  6562.924
 469  6283.834
 470  6531.523
 471  7447.68
 472  8722.002
 473  8729.153
 474  7212.812
 475  6423.483
 476  6281.53
 477  6196.428
 478  6758.979
 479  8080.104
 480  9447.94
 481  9478.919
 482  8184.924
 483  7232.893
 484  6742.436
 485  6695.214
 486  6835.965
 487  7194.761
 488  8468.027
 489  9004.537
 490  7740.032
 491  6582.194
 492  6920.457
 493  7195.476
 494  6909.814
 495  7312.874
 496  8589.795
 497  8964.386
 498  8500.528
 499  7450.071
 500  6766.705
 501  6976.678
 502  7029.934
 503  7269.38
 504  7667.146
 505  8608.545
 506  8198.761
 507  7210.867
 508  6911.441
 509  6947.929
 510  7432.325
 511  7192.894
