# Input file       =  1205841527.112188_cleaned.dat
# Candidate        =  PSR_0332+5434
# Telescope        =  AR
# Epoch_topo       =  58200.499376298474
# Epoch_bary       =  N/A
# T_sample         =  0.002
# Data Folded      =  7340032
# Data Avg         =  0.0383634627380948
# Data StdDev      =  5.24138209365084 
# Profile Bins     =  1024
# Profile Avg      =  275.076213033767 
# Profile StdDev   =  443.756593474149 
# Reduced chi-sqr  =  1.046
# Prob(Noise)      <  0.151   (~1.0 sigma)
# P_topo (ms)      =  714.574176897533  +/- 0.000501
# P'_topo (s/s)    =  -0                +/- 2.64e-10
# P''_topo (s/s^2) =  0                 +/- 1.17e-13
# P_bary (ms)      =  N/A
# P'_bary (s/s)    =  N/A
# P''_bary (s/s^2) =  N/A
# P_orb (s)        =  N/A
# asin(i)/c (s)    =  N/A
# eccentricity     =  N/A
# w (rad)          =  N/A
# T_peri           =  N/A
######################################################
   0  308.3212
   1  294.0421
   2  268.3897
   3  321.4119
   4  251.57
   5  157.5816
   6  144.5275
   7  234.8217
   8  352.46
   9  360.5621
  10  261.3167
  11  209.867
  12  278.1838
  13  295.6364
  14  132.8313
  15  38.14565
  16  84.27154
  17  204.0035
  18  200.4657
  19  162.1189
  20  219.0194
  21  246.2993
  22  262.4963
  23  244.6787
  24  233.1851
  25  214.1542
  26  196.2499
  27  216.6233
  28  240.9521
  29  178.9441
  30  179.8481
  31  222.4635
  32  249.455
  33  147.8941
  34  193.566
  35  247.0778
  36  124.8417
  37  50.00972
  38  46.7808
  39  98.66924
  40  166.1963
  41  144.6503
  42  84.19727
  43  89.4188
  44  99.57443
  45  -17.96609
  46  27.83412
  47  77.03163
  48  110.8265
  49  83.92161
  50  -56.94854
  51  -78.3055
  52  -111.7767
  53  -135.945
  54  -57.69117
  55  40.76674
  56  253.4147
  57  324.4315
  58  434.5208
  59  377.3835
  60  338.7109
  61  336.1297
  62  255.7198
  63  212.7
  64  124.9502
  65  99.45435
  66  158.1967
  67  236.2831
  68  245.5198
  69  132.1794
  70  145.7514
  71  60.06277
  72  -17.70005
  73  -9.7992
  74  38.88543
  75  19.72108
  76  12.16141
  77  196.1413
  78  333.6692
  79  369.9654
  80  179.5876
  81  136.4951
  82  222.6766
  83  232.9191
  84  175.0838
  85  233.9043
  86  268.3364
  87  289.568
  88  247.9452
  89  198.7366
  90  225.5087
  91  262.9038
  92  147.9501
  93  29.43921
  94  37.85174
  95  112.7193
  96  209.6103
  97  113.4767
  98  48.74198
  99  -15.96247
 100  42.38507
 101  106.9041
 102  104.4574
 103  244.3618
 104  265.2147
 105  295.7903
 106  217.3731
 107  79.12325
 108  -59.85453
 109  -154.3163
 110  -187.7654
 111  -197.4122
 112  -175.6113
 113  5.711416
 114  127.6094
 115  164.5816
 116  105.3523
 117  16.07007
 118  -72.38876
 119  -3.588089
 120  -76.82468
 121  -22.58946
 122  -70.06162
 123  -46.18248
 124  -72.46133
 125  -5.184849
 126  93.69381
 127  13.86759
 128  22.3674
 129  65.03332
 130  169.7755
 131  254.6385
 132  307.3982
 133  318.557
 134  275.515
 135  246.5969
 136  245.562
 137  286.4162
 138  326.5613
 139  285.2173
 140  300.4688
 141  308.9431
 142  336.3939
 143  331.9271
 144  169.1723
 145  120.9613
 146  183.6743
 147  322.6405
 148  298.0369
 149  326.4901
 150  412.169
 151  595.3942
 152  538.2867
 153  445.2314
 154  321.5502
 155  343.8369
 156  403.1144
 157  475.1034
 158  532.664
 159  561.3602
 160  475.7317
 161  405.495
 162  522.1811
 163  591.0187
 164  578.7758
 165  403.8316
 166  376.8572
 167  353.15
 168  380.3995
 169  264.9413
 170  150.4044
 171  278.0477
 172  379.7059
 173  464.443
 174  354.6547
 175  290.3232
 176  182.7643
 177  129.8557
 178  187.312
 179  252.8153
 180  244.4365
 181  125.8481
 182  48.17559
 183  60.84194
 184  82.54448
 185  121.4887
 186  202.3234
 187  230.8956
 188  252.2196
 189  277.0633
 190  345.2186
 191  341.5962
 192  308.3575
 193  211.0982
 194  191.592
 195  192.5566
 196  237.6115
 197  240.3142
 198  310.1045
 199  242.7175
 200  274.2305
 201  179.0225
 202  203.8838
 203  202.3896
 204  331.8927
 205  471.8278
 206  583.6722
 207  514.2328
 208  231.6293
 209  193.9188
 210  130.6055
 211  119.4554
 212  85.1895
 213  203.3663
 214  291.5019
 215  312.8421
 216  335.7646
 217  322.9158
 218  335.505
 219  385.3764
 220  393.5949
 221  420.5578
 222  385.5927
 223  344.257
 224  266.9742
 225  288.9341
 226  368.2161
 227  318.0369
 228  300.229
 229  248.7727
 230  226.7526
 231  236.5015
 232  300.9213
 233  398.8141
 234  367.5686
 235  422.5104
 236  327.5887
 237  235.9948
 238  232.3121
 239  306.803
 240  350.4075
 241  316.7834
 242  305.8651
 243  253.03
 244  376.316
 245  468.042
 246  551.2917
 247  546.0342
 248  480.6532
 249  517.7408
 250  559.8274
 251  638.2063
 252  602.4011
 253  613.3446
 254  570.6865
 255  488.3593
 256  406.0871
 257  317.9252
 258  347.3075
 259  241.6872
 260  90.60099
 261  134.4119
 262  303.3093
 263  420.7073
 264  335.0567
 265  300.2492
 266  353.5934
 267  357.6217
 268  267.8041
 269  142.4223
 270  150.4881
 271  219.4977
 272  286.6192
 273  242.3399
 274  157.8731
 275  266.6675
 276  425.859
 277  500.6899
 278  437.5873
 279  425.4013
 280  431.7073
 281  488.7859
 282  494.1044
 283  573.3665
 284  545.6622
 285  522.8601
 286  442.908
 287  473.1822
 288  628.1612
 289  682.6895
 290  817.134
 291  792.581
 292  816.4944
 293  636.8484
 294  737.215
 295  819.3768
 296  753.827
 297  641.0034
 298  594.1002
 299  632.9971
 300  577.9001
 301  601.0106
 302  650.7505
 303  663.0696
 304  769.1443
 305  846.5707
 306  967.7778
 307  799.7036
 308  607.7681
 309  497.5432
 310  662.7587
 311  780.2
 312  798.585
 313  776.3459
 314  795.1263
 315  779.7006
 316  722.9351
 317  658.5699
 318  751.0248
 319  827.0537
 320  727.6461
 321  653.5142
 322  629.8778
 323  680.1309
 324  690.4944
 325  643.7075
 326  627.8796
 327  608.0378
 328  526.3455
 329  453.8234
 330  422.4574
 331  509.9317
 332  500.7722
 333  409.8079
 334  304.4897
 335  255.3778
 336  406.2746
 337  421.6345
 338  392.023
 339  350.2092
 340  351.4378
 341  388.0328
 342  369.3564
 343  397.5267
 344  421.9232
 345  514.0841
 346  483.7727
 347  486.9721
 348  435.5671
 349  471.8483
 350  520.9822
 351  629.3537
 352  405.1522
 353  406.2475
 354  458.0556
 355  504.5419
 356  448.8129
 357  361.8315
 358  409.4207
 359  419.3974
 360  654.6958
 361  663.0332
 362  611.0044
 363  526.7107
 364  490.7589
 365  515.3842
 366  521.9427
 367  564.6226
 368  649.2026
 369  694.3654
 370  679.5651
 371  699.7384
 372  814.5338
 373  746.8385
 374  737.4518
 375  827.4831
 376  787.2782
 377  656.9795
 378  649.8649
 379  683.6136
 380  734.2628
 381  744.1241
 382  653.8781
 383  451.6036
 384  331.5096
 385  305.4073
 386  367.7424
 387  459.3106
 388  571.4254
 389  643.0137
 390  681.0448
 391  657.6616
 392  550.5731
 393  507.979
 394  411.8106
 395  447.7547
 396  433.3481
 397  400.8111
 398  356.7641
 399  315.3451
 400  233.4275
 401  116.1393
 402  183.8352
 403  115.6469
 404  223.9076
 405  207.7136
 406  165.6922
 407  211.857
 408  251.2506
 409  238.8214
 410  206.578
 411  238.911
 412  249.6824
 413  291.5949
 414  245.9247
 415  222.2539
 416  139.3249
 417  -17.60791
 418  -117.043
 419  -16.12737
 420  132.6177
 421  138.3
 422  167.5071
 423  215.8175
 424  285.5236
 425  284.4236
 426  206.8057
 427  208.5099
 428  291.6049
 429  251.4639
 430  238.4023
 431  212.568
 432  281.0987
 433  211.6919
 434  175.1981
 435  154.6974
 436  119.1081
 437  173.8774
 438  316.8756
 439  357.9658
 440  283.0774
 441  146.1317
 442  184.7989
 443  209.2892
 444  369.3727
 445  344.864
 446  335.7122
 447  262.4831
 448  269.9973
 449  390.413
 450  341.6939
 451  333.335
 452  333.463
 453  355.0572
 454  283.8103
 455  278.0722
 456  292.6248
 457  352.0806
 458  297.8003
 459  226.53
 460  77.72072
 461  124.1911
 462  324.0692
 463  316.3271
 464  248.4326
 465  155.9768
 466  308.6595
 467  327.9963
 468  331.5138
 469  345.9447
 470  426.9343
 471  298.3398
 472  186.2287
 473  212.7748
 474  310.5706
 475  246.6054
 476  213.5239
 477  186.6312
 478  284.6286
 479  234.705
 480  70.18006
 481  -23.26772
 482  -119.7843
 483  -45.07093
 484  50.44901
 485  120.779
 486  123.4048
 487  85.23372
 488  26.81002
 489  -10.59599
 490  -41.58153
 491  -46.74938
 492  7.088135
 493  -41.16598
 494  -55.74948
 495  -113.4545
 496  -59.69985
 497  -71.01808
 498  -154.9148
 499  -266.4567
 500  -404.9429
 501  -369.126
 502  -211.7397
 503  -97.92247
 504  15.60776
 505  -76.27225
 506  -182.9495
 507  -138.6637
 508  -36.89408
 509  81.53367
 510  55.81871
 511  90.98735
 512  56.3625
 513  -10.38917
 514  -113.1089
 515  -129.8202
 516  -163.7273
 517  -61.35597
 518  60.06245
 519  142.6419
 520  35.4092
 521  -81.63524
 522  -130.9348
 523  -118.0413
 524  -149.9599
 525  -277.8885
 526  -218.3208
 527  -130.5145
 528  2.42163
 529  -61.2584
 530  -85.30654
 531  -94.58483
 532  15.35456
 533  -17.91049
 534  -80.00182
 535  -114.7843
 536  -174.1815
 537  -253.6817
 538  -263.8796
 539  -195.8349
 540  -33.5805
 541  -95.26095
 542  -150.6864
 543  -126.563
 544  -6.080091
 545  18.56909
 546  -59.52194
 547  -214.0839
 548  -188.0683
 549  -185.2174
 550  -230.3597
 551  -347.5801
 552  -393.5956
 553  -436.2885
 554  -406.9761
 555  -466.048
 556  -356.198
 557  -186.8843
 558  -96.97122
 559  -18.40957
 560  -73.91627
 561  -137.9987
 562  -320.6194
 563  -314.0316
 564  -100.991
 565  -63.9993
 566  -88.72551
 567  -184.9
 568  -181.1533
 569  -258.2662
 570  -147.8407
 571  -147.5309
 572  -51.42407
 573  -65.79503
 574  -63.49344
 575  -22.70839
 576  28.60626
 577  113.8866
 578  43.01476
 579  11.94171
 580  74.00594
 581  88.89869
 582  237.1473
 583  100.7371
 584  128.0221
 585  144.384
 586  173.4755
 587  242.1001
 588  268.3781
 589  339.7715
 590  471.0577
 591  479.2423
 592  421.4365
 593  382.4156
 594  478.6557
 595  483.5318
 596  495.1576
 597  558.1714
 598  542.5184
 599  618.7028
 600  678.7776
 601  891.3512
 602  1135.651
 603  1333.613
 604  1351.09
 605  1399.245
 606  1453.124
 607  1442.597
 608  1414.984
 609  1350.748
 610  1189.402
 611  1040.583
 612  858.2428
 613  655.0569
 614  521.5197
 615  458.4104
 616  446.959
 617  305.5484
 618  378.9103
 619  391.2563
 620  464.7664
 621  352.0813
 622  387.789
 623  333.9232
 624  398.6163
 625  469.6412
 626  614.8336
 627  650.1816
 628  540.6155
 629  496.4075
 630  497.2484
 631  522.2098
 632  640.0791
 633  824.5969
 634  806.6786
 635  715.3874
 636  687.186
 637  725.4089
 638  820.04
 639  727.9738
 640  690.9961
 641  642.2057
 642  723.829
 643  740.4601
 644  682.8372
 645  597.6544
 646  562.634
 647  640.7441
 648  524.9246
 649  481.718
 650  390.8297
 651  415.3011
 652  332.9586
 653  452.7209
 654  431.4328
 655  356.9647
 656  294.8963
 657  314.8756
 658  343.0874
 659  305.8456
 660  311.0949
 661  393.0873
 662  400.1584
 663  180.2225
 664  112.0925
 665  112.4312
 666  185.6155
 667  153.0525
 668  192.8094
 669  145.7025
 670  187.5711
 671  287.8524
 672  346.0256
 673  351.8139
 674  291.9189
 675  299.469
 676  256.2477
 677  100.4295
 678  5.52789
 679  61.98461
 680  193.261
 681  195.8445
 682  179.1821
 683  172.6882
 684  42.87587
 685  167.8421
 686  235.7103
 687  285.2603
 688  76.96458
 689  39.4821
 690  25.02359
 691  13.96891
 692  32.66272
 693  66.49444
 694  202.9628
 695  297.3796
 696  341.5734
 697  220.553
 698  108.7401
 699  105.7646
 700  199.582
 701  294.0679
 702  299.4539
 703  350.63
 704  371.8676
 705  245.259
 706  90.27103
 707  -15.39303
 708  -9.398318
 709  15.24165
 710  19.02783
 711  76.24741
 712  167.4603
 713  111.4046
 714  106.7501
 715  85.12683
 716  129.8567
 717  25.23743
 718  -39.69323
 719  -14.43311
 720  43.08299
 721  80.51379
 722  -36.56505
 723  -45.63845
 724  -68.34641
 725  -16.10808
 726  26.704
 727  122.3521
 728  192.4339
 729  258.927
 730  287.6145
 731  284.2237
 732  193.0918
 733  235.0725
 734  240.0719
 735  399.4931
 736  488.198
 737  444.0267
 738  353.3046
 739  375.1646
 740  390.1165
 741  537.2749
 742  464.0239
 743  390.2124
 744  411.9925
 745  468.6543
 746  378.8312
 747  274.3297
 748  293.4499
 749  345.1063
 750  302.3416
 751  301.5079
 752  282.1639
 753  321.8978
 754  358.5092
 755  433.4507
 756  443.7244
 757  400.1663
 758  413.0689
 759  489.572
 760  552.9256
 761  532.782
 762  365.6375
 763  434.967
 764  415.4435
 765  461.8906
 766  416.1871
 767  286.8305
 768  268.2633
 769  240.4723
 770  301.5554
 771  308.7077
 772  359.8855
 773  279.4872
 774  317.5276
 775  332.735
 776  368.3221
 777  465.7
 778  492.8024
 779  542.9281
 780  530.4584
 781  535.8634
 782  451.1797
 783  508.0974
 784  485.6601
 785  371.4132
 786  272.8323
 787  240.7541
 788  136.3789
 789  137.9654
 790  278.7921
 791  404.6152
 792  467.1888
 793  408.601
 794  370.5735
 795  394.9779
 796  403.0562
 797  391.6312
 798  432.12
 799  477.0253
 800  590.8535
 801  596.7672
 802  680.5083
 803  500.1496
 804  416.3783
 805  283.8696
 806  403.8654
 807  509.6065
 808  616.8497
 809  487.4809
 810  415.8926
 811  335.7703
 812  368.6314
 813  536.2791
 814  608.4472
 815  550.4838
 816  420.3801
 817  454.1573
 818  569.6791
 819  653.1896
 820  542.704
 821  440.9269
 822  343.0467
 823  308.3463
 824  301.6905
 825  282.0041
 826  466.9516
 827  553.2568
 828  565.3866
 829  364.597
 830  406.5327
 831  467.1799
 832  595.0685
 833  530.0916
 834  453.4753
 835  398.9342
 836  338.1012
 837  438.9395
 838  472.6122
 839  474.0522
 840  365.8904
 841  391.5766
 842  456.2499
 843  443.0144
 844  312.644
 845  262.4848
 846  271.8245
 847  293.062
 848  325.8355
 849  446.2391
 850  427.8591
 851  450.7948
 852  368.5016
 853  313.0723
 854  206.34
 855  233.5831
 856  322.6458
 857  451.4502
 858  421.1179
 859  359.1767
 860  326.6064
 861  280.2076
 862  373.4124
 863  362.9813
 864  456.5325
 865  355.5808
 866  208.3814
 867  148.6286
 868  173.5179
 869  222.7635
 870  239.5983
 871  301.761
 872  393.0318
 873  302.5207
 874  184.7392
 875  114.5488
 876  193.1002
 877  266.1006
 878  264.962
 879  176.8807
 880  176.3671
 881  266.0472
 882  283.6823
 883  222.3824
 884  324.3935
 885  415.632
 886  445.595
 887  364.0382
 888  255.2378
 889  185.6393
 890  247.3484
 891  349.7639
 892  317.0712
 893  210.1625
 894  191.0106
 895  99.63761
 896  210.1736
 897  279.0676
 898  415.5134
 899  412.3287
 900  447.449
 901  355.751
 902  254.4554
 903  168.1131
 904  138.1265
 905  324.4438
 906  461.4994
 907  553.7407
 908  365.9598
 909  241.3417
 910  237.4855
 911  247.9798
 912  193.9478
 913  233.9176
 914  218.7284
 915  246.4408
 916  183.8168
 917  146.2797
 918  51.74105
 919  29.35044
 920  107.956
 921  132.44
 922  111.141
 923  80.01501
 924  146.5349
 925  209.7206
 926  78.59124
 927  -46.46065
 928  1.393084
 929  97.464
 930  106.8556
 931  97.04418
 932  65.68148
 933  143.6054
 934  85.94851
 935  32.72953
 936  -42.39319
 937  -70.49786
 938  -54.46417
 939  -48.53349
 940  21.44031
 941  3.902387
 942  54.58545
 943  65.27607
 944  119.435
 945  166.3074
 946  119.8369
 947  29.19028
 948  38.06426
 949  49.52771
 950  204.9484
 951  112.3666
 952  182.4081
 953  96.00121
 954  222.5409
 955  208.3864
 956  315.932
 957  241.3857
 958  91.4928
 959  2.028794
 960  12.94131
 961  4.761128
 962  -37.58865
 963  -47.44542
 964  43.73237
 965  92.93899
 966  182.0366
 967  202.584
 968  159.9631
 969  135.5876
 970  98.70224
 971  170.4768
 972  220.5473
 973  208.8861
 974  148.7688
 975  115.9445
 976  127.3984
 977  226.9672
 978  225.7481
 979  238.3331
 980  269.169
 981  342.9252
 982  318.692
 983  268.0361
 984  326.3404
 985  414.7001
 986  333.5878
 987  216.1395
 988  165.7329
 989  136.9252
 990  203.9124
 991  113.3807
 992  26.25709
 993  -57.86248
 994  30.79063
 995  -54.69229
 996  56.22921
 997  69.9283
 998  157.6608
 999  139.4588
1000  83.24353
1001  54.99714
1002  18.23305
1003  -29.75641
1004  40.86016
1005  75.89981
1006  162.4351
1007  240.8575
1008  283.061
1009  241.7563
1010  142.1094
1011  130.6244
1012  92.8871
1013  27.68183
1014  -21.58872
1015  -55.95615
1016  -65.29913
1017  -52.05116
1018  -23.17782
1019  27.90006
1020  109.3544
1021  207.9125
1022  390.8018
1023  434.5535
