# Input file       =  1205927696.108282_cleaned.dat
# Candidate        =  PSR_0332+5434
# Telescope        =  AR
# Epoch_topo       =  58201.496702642151
# Epoch_bary       =  N/A
# T_sample         =  0.002
# Data Folded      =  7340032
# Data Avg         =  0.479405038806103
# Data StdDev      =  5.99253539648348 
# Profile Bins     =  512
# Profile Avg      =  6872.96980408869 
# Profile StdDev   =  717.504458616215 
# Reduced chi-sqr  =  0.810
# Prob(Noise)      <  0.999   (~0.0 sigma)
# P_topo (ms)      =  714.573698283902  +/- 0.000721
# P'_topo (s/s)    =  -0                +/- 3.8e-10
# P''_topo (s/s^2) =  0                 +/- 1.68e-13
# P_bary (ms)      =  N/A
# P'_bary (s/s)    =  N/A
# P''_bary (s/s^2) =  N/A
# P_orb (s)        =  N/A
# asin(i)/c (s)    =  N/A
# eccentricity     =  N/A
# w (rad)          =  N/A
# T_peri           =  N/A
######################################################
   0  7343.48
   1  7386.223
   2  7476.655
   3  7740.902
   4  7850.971
   5  7611.654
   6  7512.425
   7  7496.837
   8  7469.013
   9  7858.401
  10  8082.506
  11  7888.914
  12  7588.5
  13  7890.73
  14  8101.835
  15  7858.638
  16  7759.118
  17  7918.623
  18  8142.557
  19  7939.004
  20  7771.994
  21  7980.133
  22  7650.064
  23  7417.975
  24  7608.073
  25  7613.449
  26  7214.726
  27  7286.442
  28  7226.22
  29  7632.748
  30  7289.414
  31  7253.965
  32  7330.034
  33  7164.139
  34  6872.772
  35  7032.945
  36  6931.796
  37  6723.055
  38  6898.684
  39  6869.932
  40  6916.577
  41  7124.538
  42  6748.511
  43  7010.128
  44  7077.302
  45  6807.621
  46  6539.915
  47  6444.415
  48  6604.394
  49  6499.729
  50  6180.201
  51  6620.961
  52  6701.232
  53  6721.134
  54  6941.599
  55  7082.904
  56  6887.52
  57  6992.239
  58  7070.16
  59  6689.936
  60  6609.712
  61  6311.599
  62  6111.166
  63  6536.408
  64  6802.641
  65  6490.788
  66  6518.741
  67  6387.056
  68  6340.944
  69  6494.486
  70  6367.65
  71  6490.861
  72  6467.946
  73  6393.021
  74  6325.996
  75  6385.932
  76  6595.696
  77  6411.208
  78  6212.583
  79  6263.241
  80  6636.761
  81  6440.523
  82  6005.467
  83  5901.923
  84  5801.937
  85  5740.991
  86  5714.87
  87  6031.002
  88  6112.478
  89  6082.277
  90  6067.39
  91  6089.762
  92  5792.479
  93  5903.285
  94  6167.39
  95  6086.039
  96  6256.603
  97  6319.464
  98  6208.163
  99  6435.518
 100  6360.732
 101  6465.445
 102  6818.596
 103  6814.98
 104  6827.574
 105  6788.875
 106  6652.083
 107  6879.878
 108  6867.135
 109  6991.044
 110  6824.326
 111  6629.235
 112  7019.384
 113  6946.237
 114  6743.543
 115  6266.884
 116  6630.075
 117  6900.918
 118  6511.19
 119  6664.141
 120  6429.323
 121  6725.688
 122  6776.652
 123  6905.958
 124  6654.787
 125  6675.028
 126  6826.41
 127  6749.573
 128  6862.619
 129  7079.079
 130  7140.982
 131  7273.8
 132  7139.938
 133  7154.29
 134  7106.132
 135  7016.679
 136  7444.511
 137  7750.585
 138  7841.46
 139  7489.266
 140  7712.708
 141  7985.351
 142  7837.915
 143  7470.243
 144  7632.849
 145  7701.121
 146  7767.277
 147  7648.242
 148  7243.405
 149  7184.162
 150  7345.863
 151  7527.782
 152  7317.981
 153  7394.851
 154  7133.006
 155  7102.056
 156  7063.461
 157  6918.471
 158  7058.077
 159  6935.799
 160  6667.333
 161  6733.133
 162  6619.328
 163  6775.333
 164  6887.188
 165  7012.035
 166  6819.826
 167  6583.415
 168  6917.716
 169  6748.939
 170  7319.646
 171  7445.731
 172  7281.315
 173  7505.226
 174  7490.356
 175  7287.913
 176  6959.765
 177  7178.862
 178  7312.601
 179  6928.452
 180  6884.915
 181  7141.682
 182  6651.606
 183  6696.589
 184  6725.067
 185  6684.05
 186  6997.117
 187  6940.677
 188  6582.953
 189  6667.645
 190  6949.849
 191  7173.06
 192  7197.604
 193  6767.388
 194  6614.673
 195  7018.7
 196  7357.377
 197  7322.896
 198  7318.175
 199  7279.934
 200  6894.525
 201  6777.847
 202  7026.342
 203  7211.173
 204  7419.393
 205  7637.995
 206  7554.715
 207  7156.372
 208  7125.134
 209  7543.364
 210  7363.83
 211  6913.239
 212  6800.849
 213  6757.745
 214  7030.592
 215  7063.311
 216  6865.414
 217  6790.911
 218  6728.91
 219  6550.812
 220  6847.933
 221  7173.222
 222  7265.972
 223  7089.699
 224  6487.734
 225  6425.057
 226  6510.736
 227  6543.763
 228  6468.094
 229  6798.379
 230  6843.467
 231  6487.765
 232  6043.658
 233  6492.981
 234  6769.96
 235  6107.623
 236  6242.465
 237  6407.723
 238  6339.779
 239  6031.793
 240  6418.859
 241  6607.746
 242  6454.906
 243  6404.005
 244  6132.47
 245  5832.065
 246  5433.584
 247  5506.155
 248  5852.807
 249  6184.561
 250  5755.846
 251  5831.809
 252  6174.738
 253  6462.477
 254  6598.733
 255  6303.74
 256  6477.469
 257  6720.718
 258  6554.617
 259  6666.505
 260  6744.902
 261  6559.276
 262  6329.606
 263  6451.044
 264  6303.965
 265  6097.931
 266  6459.74
 267  6281.159
 268  6372.954
 269  6400.343
 270  6027.192
 271  6096.947
 272  6528.827
 273  6559.97
 274  6584.263
 275  6470.681
 276  6476.606
 277  6573.595
 278  6519.121
 279  6491.902
 280  6655.404
 281  6964.38
 282  6974.905
 283  6891.256
 284  7097.866
 285  6857.644
 286  6942.18
 287  6918.877
 288  7085.081
 289  7065.635
 290  6750.803
 291  6654.76
 292  6864.878
 293  7009.975
 294  7128.089
 295  6883.727
 296  6969.943
 297  6700.06
 298  7098.893
 299  7444.161
 300  7631.169
 301  7909.239
 302  8196.768
 303  8773.633
 304  8378.758
 305  7853.191
 306  7006.705
 307  6388.121
 308  6113.004
 309  5832.045
 310  5944.354
 311  6295.147
 312  6192.149
 313  6255.787
 314  6341.373
 315  6451.231
 316  6345.562
 317  6780.076
 318  6780.505
 319  6807.35
 320  6863.995
 321  6945.604
 322  6948.145
 323  7327.559
 324  7485.481
 325  7486.462
 326  7147.803
 327  7113.372
 328  7237.999
 329  7114.934
 330  7338.49
 331  7396.621
 332  7106.15
 333  7047.544
 334  7098.677
 335  6923.803
 336  6805.361
 337  6821.231
 338  6943.198
 339  6718.735
 340  6640.183
 341  6596.073
 342  6929.694
 343  6781.442
 344  6849.198
 345  6841.388
 346  6858.191
 347  7038.247
 348  7589.256
 349  7479.857
 350  7333.921
 351  7477.458
 352  7462.02
 353  7135.295
 354  6988.354
 355  7135.251
 356  6960.128
 357  7026.405
 358  7550.303
 359  7649.371
 360  7146.683
 361  6801.731
 362  6935.718
 363  7349.509
 364  7335.834
 365  7094.619
 366  7060.106
 367  7110.224
 368  6820.646
 369  6695.671
 370  6826.738
 371  6814.187
 372  7013.15
 373  6969.357
 374  6530.578
 375  6577.053
 376  6609.103
 377  6445.52
 378  6791.166
 379  7083.962
 380  6857.358
 381  6712.467
 382  6622.335
 383  6460.304
 384  6233.938
 385  6379.599
 386  6343.874
 387  6516.321
 388  6821.126
 389  7046.987
 390  7162.999
 391  6780.63
 392  6966.095
 393  6880.563
 394  6638.762
 395  6715.984
 396  6993.207
 397  6974.498
 398  7185.175
 399  7538.598
 400  6966.799
 401  6675.177
 402  6841.18
 403  6968.805
 404  6967.035
 405  7106.338
 406  6943.102
 407  6566.515
 408  6741.496
 409  6640.878
 410  6461.175
 411  6455.251
 412  6909.509
 413  6551.699
 414  6392.032
 415  6508.704
 416  6494.298
 417  6630.184
 418  6917.907
 419  6667.981
 420  6694.475
 421  6330.431
 422  6491.004
 423  6416.907
 424  6622.376
 425  6780.96
 426  7075.973
 427  7240.594
 428  7151.115
 429  6918.756
 430  6514.626
 431  7188.669
 432  7071.027
 433  6781.376
 434  6545.153
 435  6552.264
 436  6568.617
 437  6549.898
 438  6723.535
 439  6783.577
 440  7140.186
 441  6820.327
 442  6676.358
 443  6728.252
 444  6570.273
 445  6549.847
 446  7163.774
 447  6854.068
 448  6765.125
 449  7115.158
 450  7248.81
 451  7109.045
 452  7215.166
 453  7369.575
 454  7261.391
 455  7396.045
 456  7273.113
 457  6898.734
 458  6943.986
 459  7015.721
 460  7193.613
 461  6855.146
 462  6995.162
 463  6944.466
 464  6855.138
 465  6680.667
 466  6633.414
 467  6673.351
 468  6649.112
 469  6777.855
 470  6539.71
 471  6842.108
 472  7108.01
 473  7054.428
 474  6717.991
 475  6666.34
 476  6732.544
 477  6982.269
 478  7046.085
 479  6812.305
 480  6827.459
 481  6711.211
 482  6829.925
 483  6849.844
 484  7244.777
 485  7215.988
 486  7098.427
 487  6649.487
 488  6632.416
 489  6529.315
 490  6580.645
 491  6612.767
 492  6876.636
 493  6957.2
 494  6853.258
 495  6867.617
 496  6752.145
 497  6365.16
 498  6326.28
 499  6654.932
 500  6739.204
 501  7017.341
 502  7107.552
 503  7347.527
 504  7319.134
 505  7325.454
 506  7527.558
 507  7507.58
 508  7354.627
 509  7268.537
 510  7147.154
 511  7286.674
