# Input file       =  1205669230.121051_cleaned.dat
# Candidate        =  PSR_0332+5434
# Telescope        =  AR
# Epoch_topo       =  58198.505198160310
# Epoch_bary       =  N/A
# T_sample         =  0.002
# Data Folded      =  7340032
# Data Avg         =  0.249083744559486
# Data StdDev      =  5.76624677403949 
# Profile Bins     =  1024
# Profile Avg      =  1785.15472366569 
# Profile StdDev   =  488.193758794782 
# Reduced chi-sqr  =  1.266
# Prob(Noise)      <  1.32e-08   (~5.6 sigma)
# P_topo (ms)      =  714.575088419446  +/- 0.000234
# P'_topo (s/s)    =  -0                +/- 1.24e-10
# P''_topo (s/s^2) =  0                 +/- 5.45e-14
# P_bary (ms)      =  N/A
# P'_bary (s/s)    =  N/A
# P''_bary (s/s^2) =  N/A
# P_orb (s)        =  N/A
# asin(i)/c (s)    =  N/A
# eccentricity     =  N/A
# w (rad)          =  N/A
# T_peri           =  N/A
######################################################
   0  2131.131
   1  2050.396
   2  2109.624
   3  2240.956
   4  2251.079
   5  2196.079
   6  2080.276
   7  2032.517
   8  1958.565
   9  1945.059
  10  1986.666
  11  1936.968
  12  1929.528
  13  1922.799
  14  1799.067
  15  1801.709
  16  1818.913
  17  1846.013
  18  1818.667
  19  1785.451
  20  1872.546
  21  1862.84
  22  1810.543
  23  1914.019
  24  1911.236
  25  1786.113
  26  1597.349
  27  1603.779
  28  1604.114
  29  1673.829
  30  1629.059
  31  1541.884
  32  1447.077
  33  1339.08
  34  1483.362
  35  1640.001
  36  1503.68
  37  1484.529
  38  1528.469
  39  1540.479
  40  1429.066
  41  1411.763
  42  1449.117
  43  1487.912
  44  1489.044
  45  1451.176
  46  1497.976
  47  1498.951
  48  1576.692
  49  1566.874
  50  1581.63
  51  1552.798
  52  1579.842
  53  1574.298
  54  1609.99
  55  1559.363
  56  1626.281
  57  1710.259
  58  1807.965
  59  1852.916
  60  1887.265
  61  1874.173
  62  1912.661
  63  1911.993
  64  1910.226
  65  1883.911
  66  1808.841
  67  1937.302
  68  2004.998
  69  1878.81
  70  1771.082
  71  1692.64
  72  1747.799
  73  1710.23
  74  1661.875
  75  1711.426
  76  1726.291
  77  1797.263
  78  1832.929
  79  1842.194
  80  1764.15
  81  1713.398
  82  1793.761
  83  1927.707
  84  1970.303
  85  2096.442
  86  2111.551
  87  2018.303
  88  1911.982
  89  1983.69
  90  2048.226
  91  2058.018
  92  1987.949
  93  1902.046
  94  1751.658
  95  1601.437
  96  1653.115
  97  1842.392
  98  1982.009
  99  2103.281
 100  2121.257
 101  2114.998
 102  2060.652
 103  1978.549
 104  2069.999
 105  2132.498
 106  2136.428
 107  1995.552
 108  1913.713
 109  1964.367
 110  1696.296
 111  1512.838
 112  1542.046
 113  1825.67
 114  1871.978
 115  2032.517
 116  1896.016
 117  1991.922
 118  2036.726
 119  2043.22
 120  2007.031
 121  1972.363
 122  2047.742
 123  1962.473
 124  1901.679
 125  1949.276
 126  1986.414
 127  2029.274
 128  1987.131
 129  2052.079
 130  2068.935
 131  2026.144
 132  2100.6
 133  2060.924
 134  1961.275
 135  2003.962
 136  2171.308
 137  2209.301
 138  2155.877
 139  2061.851
 140  1988.587
 141  2115.449
 142  2156.29
 143  2183.147
 144  2080.093
 145  2027.148
 146  1985.359
 147  1911.569
 148  1749.422
 149  1808.878
 150  1796.584
 151  1954.667
 152  1994.771
 153  2080.329
 154  2118.922
 155  2102.246
 156  1905.273
 157  1855.884
 158  1799.402
 159  1781.028
 160  1631.022
 161  1628.748
 162  1588.25
 163  1672.01
 164  1686.392
 165  1758.321
 166  1822.952
 167  1870.567
 168  1835.15
 169  1924.631
 170  1724
 171  1632.033
 172  1667.565
 173  1739.215
 174  1712.399
 175  1580.788
 176  1597.34
 177  1516.262
 178  1509.064
 179  1514.005
 180  1585.998
 181  1481.771
 182  1636.552
 183  1606.736
 184  1678.529
 185  1594.447
 186  1508.075
 187  1369.019
 188  1261.178
 189  1284.412
 190  1308.263
 191  1241.821
 192  1319.245
 193  1294.756
 194  1341.675
 195  1243.289
 196  1458.95
 197  1524.78
 198  1453.729
 199  1323.778
 200  1360.347
 201  1477.239
 202  1421.172
 203  1274.849
 204  1360.865
 205  1488.757
 206  1507.201
 207  1381.324
 208  1365.505
 209  1542.51
 210  1540.183
 211  1591.562
 212  1504.854
 213  1493.333
 214  1514.318
 215  1441.745
 216  1526.561
 217  1557.551
 218  1481.611
 219  1316.501
 220  1234.175
 221  1462.699
 222  1591.952
 223  1660.926
 224  1644.044
 225  1631.197
 226  1731.477
 227  1653.676
 228  1649.175
 229  1605.339
 230  1559.018
 231  1522.824
 232  1472.343
 233  1424.789
 234  1423.634
 235  1417.932
 236  1456.576
 237  1537.24
 238  1512.537
 239  1513.887
 240  1534.042
 241  1623.198
 242  1560.748
 243  1474.379
 244  1372.255
 245  1330.327
 246  1464.464
 247  1499.977
 248  1499.078
 249  1560.371
 250  1535.13
 251  1616.554
 252  1742.254
 253  1802.406
 254  1709.124
 255  1643.648
 256  1582.159
 257  1697.853
 258  1699.793
 259  1716.873
 260  1767.694
 261  1734.176
 262  1640.448
 263  1604.791
 264  1643.02
 265  1731.908
 266  1914.264
 267  1915.2
 268  1903.097
 269  1820.84
 270  1880.529
 271  2065.197
 272  2201.345
 273  2131.487
 274  2030.516
 275  1853.252
 276  1808.909
 277  1732.267
 278  1752.996
 279  1924.112
 280  2130.719
 281  2044.466
 282  1963.815
 283  1929.254
 284  2032.557
 285  2020.91
 286  2013.047
 287  1985.386
 288  1933.271
 289  1930.924
 290  1976.384
 291  2004.705
 292  2020.618
 293  2026.037
 294  2228.287
 295  2158.965
 296  2091.722
 297  1951.293
 298  1869.121
 299  1818.516
 300  1792.379
 301  1720.641
 302  1586.017
 303  1382.796
 304  1263.526
 305  1232.442
 306  1266.348
 307  1460.902
 308  1504.249
 309  1329.917
 310  1184.903
 311  1202.71
 312  1183.005
 313  1235.103
 314  1299.703
 315  1390.672
 316  1484.759
 317  1604.079
 318  1502.444
 319  1339.782
 320  1249.319
 321  1242.778
 322  1268.403
 323  1255.008
 324  1233.536
 325  1181.775
 326  1264.482
 327  1330.253
 328  1303.517
 329  1244.641
 330  1096.606
 331  1190.907
 332  1252.824
 333  1336.148
 334  1350.018
 335  1305.729
 336  1335.727
 337  1319.757
 338  1318.446
 339  1254.266
 340  1286.957
 341  1429.527
 342  1426.657
 343  1468.847
 344  1437.336
 345  1375.671
 346  1255.627
 347  1180.686
 348  1284.876
 349  1404.885
 350  1340.179
 351  1211.185
 352  1219.554
 353  1266.864
 354  1317.113
 355  1337.772
 356  1384.063
 357  1352.563
 358  1358.34
 359  1440.804
 360  1572.864
 361  1601.72
 362  1627.473
 363  1511.228
 364  1476.174
 365  1463.466
 366  1448.866
 367  1247.859
 368  1140.394
 369  1225.65
 370  1478.263
 371  1542.649
 372  1457.066
 373  1368.937
 374  1379.145
 375  1416.425
 376  1461.733
 377  1398.445
 378  1408.55
 379  1442.831
 380  1453.622
 381  1494.477
 382  1464.672
 383  1521.218
 384  1416.431
 385  1469.831
 386  1587.408
 387  1689.438
 388  1750.293
 389  1626.307
 390  1533.62
 391  1422.232
 392  1409.554
 393  1460.547
 394  1426.671
 395  1508.319
 396  1638.015
 397  1808.213
 398  1982.055
 399  2060.205
 400  2092.976
 401  1965.591
 402  1994.673
 403  1973.828
 404  1931.954
 405  1929.573
 406  1999.302
 407  1958.646
 408  1937.865
 409  1872.922
 410  2012.343
 411  2152.301
 412  2232.542
 413  2207.522
 414  2126.853
 415  2251.835
 416  2417.613
 417  2430.674
 418  2264.126
 419  2104.267
 420  2071.333
 421  2018.135
 422  2076.225
 423  2279.26
 424  2280.869
 425  2179.15
 426  2250.183
 427  2336.595
 428  2313.252
 429  2266.664
 430  2256.954
 431  2272.269
 432  2188.452
 433  2133.902
 434  2066.988
 435  2077.454
 436  2088.256
 437  2226.287
 438  2307.792
 439  2295.202
 440  2259.224
 441  2227.819
 442  2249.086
 443  2263.663
 444  2374.681
 445  2393.49
 446  2186.909
 447  2141.28
 448  2321.087
 449  2368.725
 450  2310.232
 451  2041.636
 452  1926.106
 453  1934.569
 454  2053.264
 455  2106.301
 456  2098.44
 457  1998.017
 458  1940.948
 459  1959.01
 460  2008.438
 461  2011.564
 462  1976.796
 463  1872.758
 464  1804.949
 465  1823.873
 466  1893.362
 467  1940.218
 468  1863.875
 469  1811.254
 470  1797.901
 471  1838.325
 472  1892.161
 473  1914.963
 474  1981.112
 475  2048.391
 476  2061.497
 477  2040.402
 478  1966.365
 479  1953.022
 480  1981.43
 481  1940.914
 482  1846.12
 483  1766.717
 484  1795.43
 485  1854.348
 486  1778.02
 487  1826.852
 488  1877.156
 489  1833.387
 490  1731.98
 491  1771.783
 492  1816.793
 493  1795.696
 494  1794.757
 495  1782.652
 496  1855.532
 497  1859.574
 498  1933.9
 499  1879.065
 500  1748.456
 501  1640.734
 502  1604.903
 503  1624.68
 504  1704.419
 505  1794.047
 506  1835.435
 507  1732.828
 508  1651.6
 509  1565.069
 510  1615.851
 511  1760.429
 512  1872.56
 513  1972.63
 514  2037.162
 515  2058.663
 516  2014.082
 517  1915.657
 518  1842.379
 519  1768.749
 520  1808.7
 521  1897.136
 522  1968.728
 523  1869.19
 524  1784.831
 525  1771.401
 526  1816.853
 527  1952.926
 528  1989.745
 529  1843.793
 530  1805.576
 531  1816.873
 532  2015.817
 533  2001.438
 534  1983.466
 535  1921.742
 536  1842.237
 537  1811.217
 538  1787.062
 539  1769.782
 540  1625.032
 541  1618.292
 542  1613.573
 543  1578.799
 544  1735.297
 545  1862.798
 546  1873.07
 547  1936.493
 548  1954.646
 549  2037.957
 550  2063.365
 551  2005.293
 552  1895.616
 553  1884.163
 554  1954.323
 555  1935.619
 556  1962.597
 557  2061.015
 558  1995.292
 559  1864.283
 560  1793.784
 561  1755.35
 562  1865.802
 563  1936.622
 564  2143.855
 565  2351.106
 566  2354.684
 567  2388.642
 568  2317.654
 569  2302.527
 570  2275.33
 571  2326.953
 572  2291.76
 573  2292.365
 574  2228.727
 575  2099.238
 576  2018.404
 577  2013.212
 578  2039.058
 579  2096.961
 580  2051.238
 581  2156.188
 582  2185.548
 583  2285.109
 584  2263.428
 585  2224.887
 586  2154.083
 587  2070.859
 588  2038.685
 589  2060.206
 590  2063.528
 591  2055.516
 592  2040.239
 593  2019.509
 594  1962.5
 595  1905.405
 596  2109.31
 597  2231.927
 598  2190.961
 599  2136.94
 600  2158.965
 601  2218.006
 602  2440.485
 603  2518.155
 604  2681.577
 605  2713.384
 606  2753.119
 607  2698.006
 608  2511.002
 609  2479.064
 610  2493.704
 611  2520.036
 612  2376.934
 613  2051.037
 614  1834.386
 615  1843.799
 616  1728.182
 617  1734.634
 618  1783.714
 619  1856.255
 620  1778.891
 621  1757.913
 622  1787.306
 623  1879.499
 624  1877.939
 625  1839.822
 626  1901.818
 627  1915.987
 628  1869.223
 629  1825.922
 630  1915.259
 631  2077.318
 632  2114.998
 633  2093.267
 634  1959.063
 635  1760.88
 636  1709.692
 637  1667.525
 638  1730.926
 639  1632.752
 640  1537.176
 641  1515.984
 642  1482.178
 643  1518.048
 644  1691.236
 645  1720.089
 646  1612.57
 647  1560.824
 648  1618.854
 649  1589.472
 650  1489.153
 651  1555.918
 652  1595.218
 653  1526.023
 654  1406.837
 655  1326.387
 656  1440.416
 657  1525.004
 658  1573.185
 659  1631.891
 660  1614.001
 661  1786.319
 662  1818.678
 663  1870.761
 664  1918.09
 665  1898.019
 666  1809.286
 667  1762.638
 668  1784.301
 669  1805.324
 670  1699.531
 671  1613.707
 672  1538.669
 673  1544.602
 674  1564.393
 675  1757.193
 676  1875.264
 677  1922.576
 678  1908.672
 679  1818.379
 680  1864.171
 681  1896.724
 682  1978.28
 683  1885.524
 684  1790.699
 685  1654.163
 686  1635.196
 687  1708.594
 688  1861.398
 689  1851.387
 690  1827.937
 691  1766.254
 692  1758.214
 693  1752.977
 694  1834.725
 695  1966.329
 696  2012.262
 697  1958.613
 698  1906.015
 699  1834.921
 700  1900.122
 701  1913.564
 702  1967.055
 703  1809.517
 704  1794.127
 705  1854.304
 706  2007.888
 707  1998.265
 708  1860.327
 709  1717.739
 710  1729.449
 711  1665.821
 712  1857.802
 713  1890.136
 714  1945.041
 715  1890.734
 716  1700.295
 717  1516.872
 718  1566.641
 719  1744.901
 720  1933.868
 721  1926.926
 722  1920.891
 723  1865.349
 724  1996.282
 725  2019.466
 726  2080.02
 727  2022.708
 728  1917.727
 729  1995.048
 730  2043.901
 731  1965.796
 732  1829.786
 733  1777.364
 734  1738.091
 735  1725.242
 736  1796.595
 737  1782.074
 738  1870.478
 739  2013.866
 740  2096.539
 741  1906.011
 742  1661.513
 743  1712.206
 744  1782.258
 745  1864.495
 746  1769.456
 747  1736.226
 748  1682.181
 749  1654.326
 750  1528.294
 751  1375.689
 752  1379.918
 753  1446.31
 754  1463.694
 755  1427.669
 756  1460.188
 757  1543.586
 758  1429.524
 759  1317.215
 760  1374.31
 761  1433.2
 762  1474.969
 763  1404.599
 764  1363.186
 765  1201.592
 766  1144.708
 767  1233.113
 768  1271.853
 769  1293.128
 770  1258.034
 771  1226.234
 772  1266.188
 773  1292.382
 774  1503.871
 775  1362.447
 776  1307.412
 777  1268.87
 778  1307.798
 779  1448.49
 780  1391.693
 781  1328.199
 782  1226.294
 783  1296.988
 784  1332.072
 785  1344.425
 786  1411.462
 787  1500.166
 788  1491.14
 789  1439.748
 790  1516.574
 791  1477.295
 792  1432.453
 793  1513.297
 794  1627.113
 795  1695.635
 796  1676.669
 797  1727.486
 798  1754.763
 799  1637.304
 800  1565.802
 801  1578.176
 802  1651.966
 803  1709.977
 804  1731.811
 805  1811.971
 806  1860.41
 807  1914.683
 808  1743.108
 809  1665.792
 810  1630.39
 811  1769.529
 812  1804.789
 813  1857.849
 814  1963.317
 815  1954.769
 816  1829.533
 817  1754.176
 818  1845.85
 819  1879.569
 820  1886.123
 821  1925.799
 822  1905.702
 823  1834.037
 824  1854.404
 825  1854.331
 826  1962.198
 827  2003.962
 828  2036.686
 829  2030.394
 830  2016.002
 831  2120.48
 832  2149.161
 833  2135.69
 834  2034.174
 835  1990.912
 836  1989.337
 837  1866.145
 838  1754.648
 839  1721.557
 840  1850.783
 841  1962.53
 842  2040.59
 843  2016.539
 844  2144.994
 845  2207.33
 846  2233.152
 847  2206.846
 848  2158.173
 849  2090.078
 850  2044.908
 851  2117.126
 852  2230.004
 853  2309.251
 854  2193.909
 855  2195.111
 856  2209.259
 857  2176.061
 858  2201.721
 859  2164.936
 860  2284.187
 861  2258.857
 862  2253.268
 863  2251.159
 864  2328.995
 865  2341.419
 866  2354.667
 867  2328.69
 868  2281.675
 869  2194.905
 870  2095.105
 871  2088.146
 872  2132.419
 873  2109.803
 874  2135.857
 875  2078.683
 876  2006.531
 877  2094.008
 878  2066.702
 879  2060.391
 880  2006.74
 881  2229.101
 882  2154.389
 883  2022.89
 884  1919.295
 885  1785.956
 886  1736.462
 887  1494.668
 888  1542.074
 889  1664.244
 890  1779.788
 891  1933.942
 892  2110.039
 893  2097.516
 894  1974.795
 895  1797.219
 896  1816.633
 897  1763.576
 898  1728.289
 899  1638.363
 900  1583.98
 901  1511.389
 902  1406.133
 903  1437.008
 904  1378.167
 905  1498.308
 906  1549.022
 907  1585.451
 908  1408.81
 909  1279.087
 910  1239.89
 911  1287.033
 912  1268.648
 913  1180.874
 914  1135.643
 915  1100.401
 916  1123.215
 917  1276.866
 918  1347.348
 919  1323.389
 920  1278.737
 921  1369.017
 922  1482.355
 923  1563.52
 924  1605.882
 925  1539.127
 926  1545.484
 927  1460.971
 928  1298.009
 929  1245.214
 930  1200.295
 931  1324.534
 932  1407.334
 933  1424.444
 934  1347.161
 935  1371.187
 936  1404.936
 937  1457.17
 938  1522.188
 939  1539.39
 940  1596.076
 941  1498.521
 942  1383.931
 943  1324.454
 944  1281.762
 945  1241.672
 946  1297.071
 947  1212.636
 948  1239.679
 949  1289.323
 950  1400.371
 951  1518.458
 952  1577.519
 953  1575.831
 954  1497.917
 955  1438.501
 956  1539.867
 957  1552.713
 958  1491.63
 959  1539.119
 960  1669.699
 961  1737.924
 962  1569.545
 963  1478.505
 964  1518.408
 965  1638.384
 966  1661.513
 967  1773.977
 968  1798.873
 969  1857.92
 970  1911.881
 971  1970.971
 972  1969.425
 973  1865.068
 974  1915.648
 975  1885.894
 976  1874.436
 977  1908.101
 978  1927.503
 979  1970.423
 980  1939.725
 981  1978.414
 982  2079.333
 983  2162.818
 984  2047.757
 985  1965.298
 986  1929.265
 987  1966.075
 988  1952.736
 989  1981.605
 990  1975.325
 991  1863.906
 992  1828.534
 993  1843.232
 994  1955.921
 995  1868.676
 996  1844.991
 997  1765.856
 998  1883.249
 999  2022.871
1000  2145.384
1001  2095.7
1002  2117.781
1003  2264.226
1004  2275.278
1005  2096.051
1006  2066.279
1007  2020.581
1008  2113.547
1009  2181.708
1010  2336.376
1011  2435.543
1012  2329.379
1013  2255.763
1014  2229.126
1015  2255.713
1016  2328.185
1017  2406.677
1018  2389.263
1019  2437.039
1020  2353.349
1021  2279.225
1022  2207.679
1023  2213.786
