# Input file       =  1205339709.115775_cleaned.dat
# Candidate        =  PSR_0332+5434
# Telescope        =  AR
# Epoch_topo       =  58194.691297636287
# Epoch_bary       =  N/A
# T_sample         =  0.002
# Data Folded      =  7340032
# Data Avg         =  0.0378854539482302
# Data StdDev      =  1.00004193986925 
# Profile Bins     =  512
# Profile Avg      =  543.134792365564 
# Profile StdDev   =  119.738057964657 
# Reduced chi-sqr  =  1.274
# Prob(Noise)      <  2.48e-05   (~4.1 sigma)
# P_topo (ms)      =  714.576990599834  +/- 0.000328
# P'_topo (s/s)    =  -0                +/- 1.73e-10
# P''_topo (s/s^2) =  0                 +/- 7.64e-14
# P_bary (ms)      =  N/A
# P'_bary (s/s)    =  N/A
# P''_bary (s/s^2) =  N/A
# P_orb (s)        =  N/A
# asin(i)/c (s)    =  N/A
# eccentricity     =  N/A
# w (rad)          =  N/A
# T_peri           =  N/A
######################################################
   0  1245.555
   1  1203.913
   2  922.9258
   3  694.6727
   4  625.907
   5  644.545
   6  701.4182
   7  514.4328
   8  564.111
   9  569.3597
  10  484.7766
  11  531.0821
  12  696.0374
  13  611.1125
  14  407.0387
  15  515.8932
  16  707.3545
  17  691.4342
  18  682.3815
  19  594.9305
  20  575.2959
  21  454.9519
  22  521.1978
  23  625.8974
  24  476.2307
  25  398.8929
  26  441.79
  27  448.2065
  28  434.3283
  29  473.7364
  30  547.8044
  31  463.7195
  32  497.3299
  33  509.6369
  34  350.0468
  35  483.745
  36  529.3611
  37  680.2753
  38  495.2608
  39  466.9554
  40  511.5835
  41  505.3569
  42  542.7194
  43  549.4315
  44  513.8232
  45  530.4473
  46  563.7101
  47  553.5681
  48  575.8137
  49  538.4149
  50  446.6291
  51  521.7858
  52  457.6485
  53  483.6515
  54  479.7513
  55  605.8182
  56  621.5396
  57  569.7499
  58  502.2101
  59  463.3444
  60  444.2725
  61  482.2274
  62  556.7891
  63  492.5482
  64  440.171
  65  465.2681
  66  562.6034
  67  605.0983
  68  606.3762
  69  458.8486
  70  386.1622
  71  432.9092
  72  512.6179
  73  426.2803
  74  531.7318
  75  636.3351
  76  580.4951
  77  485.6973
  78  563.5478
  79  616.3551
  80  638.0224
  81  669.6124
  82  553.012
  83  604.8848
  84  621.5276
  85  552.7784
  86  537.5845
  87  508.1747
  88  562.6428
  89  587.3674
  90  605.4556
  91  636.1152
  92  554.6172
  93  509.1236
  94  502.8968
  95  495.275
  96  559.024
  97  577.532
  98  515.0037
  99  614.2755
 100  558.8748
 101  538.8165
 102  553.7916
 103  587.0449
 104  576.6831
 105  467.7722
 106  537.7108
 107  488.4394
 108  367.6253
 109  463.6661
 110  532.233
 111  469.7314
 112  464.9128
 113  447.674
 114  429.179
 115  593.9892
 116  602.6444
 117  562.8588
 118  591.56
 119  683.033
 120  691.157
 121  495.7998
 122  584.4099
 123  524.6236
 124  547.7666
 125  464.539
 126  618.7774
 127  606.5289
 128  543.1001
 129  430.6024
 130  587.04
 131  603.4671
 132  537.2195
 133  553.373
 134  577.5999
 135  625.4891
 136  516.6348
 137  485.3967
 138  702.0318
 139  659.9369
 140  662.1279
 141  608.0431
 142  524.5837
 143  488.8922
 144  488.838
 145  475.1876
 146  551.9642
 147  580.8
 148  573.4619
 149  497.2174
 150  504.3094
 151  457.8038
 152  461.2447
 153  505.8489
 154  421.806
 155  358.2735
 156  432.7753
 157  553.4712
 158  490.7277
 159  463.7751
 160  580.4141
 161  573.468
 162  461.595
 163  481.8098
 164  531.6206
 165  462.5636
 166  450.2257
 167  551.6313
 168  560.8207
 169  638.3346
 170  499.9212
 171  542.4321
 172  563.9236
 173  580.6493
 174  583.2495
 175  611.6577
 176  632.0272
 177  581.7472
 178  566.3586
 179  588.9155
 180  656.5938
 181  700.6489
 182  682.2904
 183  574.6868
 184  492.4563
 185  492.7552
 186  550.8029
 187  625.8776
 188  435.5195
 189  418.4881
 190  597.6564
 191  603.5942
 192  630.2914
 193  595.9563
 194  508.011
 195  642.4615
 196  638.0897
 197  604.9492
 198  547.4091
 199  582.14
 200  495.5862
 201  421.7281
 202  528.0634
 203  543.9493
 204  541.2297
 205  569.5667
 206  474.2203
 207  558.4275
 208  559.54
 209  477.4131
 210  402.8287
 211  495.274
 212  571.2574
 213  691.0027
 214  586.1008
 215  655.8015
 216  659.5558
 217  621.4108
 218  640.801
 219  650.9826
 220  634.0295
 221  507.7606
 222  454.6339
 223  471.4152
 224  543.6633
 225  521.9406
 226  515.3678
 227  601.5858
 228  634.6884
 229  598.3492
 230  508.4974
 231  603.9656
 232  537.9778
 233  500.7107
 234  556.5071
 235  455.4178
 236  501.9556
 237  592.8359
 238  520.8987
 239  519.661
 240  558.837
 241  564.2497
 242  629.0105
 243  588.2873
 244  555.4924
 245  609.8586
 246  610.5767
 247  615.3282
 248  560.7936
 249  659.982
 250  632.5345
 251  564.861
 252  550.4614
 253  504.1274
 254  406.6725
 255  542.1396
 256  641.254
 257  658.2408
 258  637.9117
 259  547.7852
 260  481.9392
 261  459.4973
 262  460.1154
 263  440.0521
 264  498.7398
 265  538.4673
 266  492.5356
 267  480.1418
 268  407.1804
 269  425.3036
 270  522.5351
 271  586.118
 272  604.2283
 273  608.9426
 274  621.971
 275  416.7911
 276  450.48
 277  565.9735
 278  504.2729
 279  526.4355
 280  611.5942
 281  586.285
 282  454.4235
 283  546.9894
 284  598.0332
 285  640.0759
 286  588.9289
 287  603.261
 288  588.4922
 289  554.6072
 290  640.5927
 291  630.5756
 292  607.6093
 293  544.5878
 294  553.3472
 295  589.3608
 296  504.2253
 297  591.6051
 298  615.7872
 299  686.548
 300  642.1734
 301  490.9834
 302  508.5403
 303  384.3462
 304  512.6523
 305  567.5494
 306  564.7296
 307  458.3262
 308  423.3731
 309  455.2474
 310  464.6824
 311  483.6822
 312  405.3481
 313  511.6349
 314  596.5123
 315  468.6132
 316  442.1117
 317  539.8783
 318  523.5567
 319  522.7724
 320  550.7432
 321  561.3609
 322  509.9008
 323  480.8061
 324  492.2222
 325  417.6735
 326  440.835
 327  582.7049
 328  458.8892
 329  457.8231
 330  446.2206
 331  435.6945
 332  481.6796
 333  464.1891
 334  429.6702
 335  493.9476
 336  433.2066
 337  514.861
 338  423.937
 339  517.907
 340  650.1725
 341  511.3258
 342  366.9524
 343  417.319
 344  462.2734
 345  555.2146
 346  574.9102
 347  479.5817
 348  508.9597
 349  486.6029
 350  432.9507
 351  348.9077
 352  299.1411
 353  460.7227
 354  543.5449
 355  581.8922
 356  554.926
 357  537.5292
 358  526.2629
 359  599.6677
 360  551.0926
 361  413.5775
 362  472.2098
 363  542.9586
 364  563.1556
 365  579.0677
 366  627.2317
 367  527.9476
 368  439.4832
 369  452.6506
 370  511.8625
 371  427.8987
 372  461.7265
 373  497.9849
 374  505.55
 375  481.7063
 376  566.8027
 377  577.373
 378  582.9097
 379  550.9333
 380  606.9666
 381  586.4016
 382  587.7386
 383  651.2109
 384  551.0665
 385  529.1027
 386  457.3122
 387  396.6729
 388  365.9552
 389  388.8
 390  512.673
 391  495.4158
 392  593.2087
 393  618.4902
 394  586.7847
 395  556.1122
 396  552.9662
 397  545.2804
 398  611.6801
 399  636.1633
 400  546.2563
 401  539.0808
 402  564.358
 403  580.8999
 404  527.1593
 405  622.3276
 406  616.6196
 407  475.2607
 408  466.1686
 409  519.8661
 410  433.6747
 411  428.7304
 412  493.506
 413  457.8451
 414  512.8713
 415  435.3469
 416  352.1812
 417  455.6883
 418  435.0875
 419  468.9951
 420  481.2982
 421  434.6833
 422  440.3811
 423  471.4796
 424  519.5751
 425  498.5165
 426  456.8066
 427  399.1547
 428  470.7079
 429  409.8261
 430  534.249
 431  557.8016
 432  568.1613
 433  499.0553
 434  368.3472
 435  410.8843
 436  580.5224
 437  413.9415
 438  567.5439
 439  573.4755
 440  489.8599
 441  475.0088
 442  418.6204
 443  527.6236
 444  547.0994
 445  485.461
 446  595.0212
 447  551.8799
 448  539.3728
 449  645.9164
 450  643.8873
 451  538.1634
 452  383.5232
 453  494.485
 454  573.2321
 455  640.7592
 456  578.4638
 457  527.6321
 458  513.9534
 459  508.047
 460  528.1901
 461  689.0699
 462  724.4432
 463  659.1398
 464  526.7762
 465  529.1292
 466  579.4023
 467  534.0067
 468  587.179
 469  570.5585
 470  559.3413
 471  514.2875
 472  425.2597
 473  475.3634
 474  509.3531
 475  473.3702
 476  554.7529
 477  555.2404
 478  553.9639
 479  486.9296
 480  484.3192
 481  496.8997
 482  549.5739
 483  429.9191
 484  485.1625
 485  574.6702
 486  479.8812
 487  438.071
 488  538.7793
 489  527.757
 490  534.5706
 491  598.853
 492  707.6474
 493  778.8663
 494  651.9706
 495  585.8734
 496  571.588
 497  513.8229
 498  675.8691
 499  602.5441
 500  529.4861
 501  538.2481
 502  746.0763
 503  780.9685
 504  677.2421
 505  705.848
 506  626.3467
 507  749.4102
 508  781.4949
 509  934.8091
 510  1020.518
 511  1137.471
