# Input file       =  1205684143.112546_cleaned.dat
# Candidate        =  PSR_0332+5434
# Telescope        =  AR
# Epoch_topo       =  58198.677802228543
# Epoch_bary       =  N/A
# T_sample         =  0.002
# Data Folded      =  7340032
# Data Avg         =  1.2926643120154  
# Data StdDev      =  10.3440900995246 
# Profile Bins     =  512
# Profile Avg      =  18531.4659488708 
# Profile StdDev   =  1238.52931617093 
# Reduced chi-sqr  =  1.600
# Prob(Noise)      <  1.59e-16   (~8.2 sigma)
# P_topo (ms)      =  714.57534761716   +/- 0.000678
# P'_topo (s/s)    =  -0                +/- 3.58e-10
# P''_topo (s/s^2) =  0                 +/- 1.58e-13
# P_bary (ms)      =  N/A
# P'_bary (s/s)    =  N/A
# P''_bary (s/s^2) =  N/A
# P_orb (s)        =  N/A
# asin(i)/c (s)    =  N/A
# eccentricity     =  N/A
# w (rad)          =  N/A
# T_peri           =  N/A
######################################################
   0  16612.13
   1  16687.98
   2  16792.61
   3  16932.41
   4  16801.94
   5  17136.83
   6  17249.54
   7  17387.49
   8  17277.43
   9  17701.63
  10  17587.76
  11  17681.14
  12  18357.22
  13  18566.9
  14  18782.34
  15  18122.92
  16  18313.05
  17  18777.52
  18  18538.35
  19  18879.33
  20  18938.86
  21  19319.33
  22  19695.19
  23  19487.74
  24  19122.39
  25  19053.77
  26  19198.93
  27  19647.36
  28  20131.79
  29  20009.98
  30  19440.4
  31  19362.21
  32  19715.15
  33  19971.44
  34  19849.75
  35  19753.7
  36  19620.65
  37  19631.59
  38  19103.53
  39  18742.93
  40  18842.64
  41  19041.58
  42  19031.77
  43  19185.06
  44  19102.76
  45  18805.47
  46  19089.72
  47  19601.43
  48  19810.94
  49  19772.38
  50  19910.09
  51  20004.33
  52  19835
  53  19991.93
  54  20000.65
  55  19960.25
  56  19738.29
  57  19375.19
  58  19544.79
  59  19634.19
  60  19504.96
  61  19689.37
  62  20312.75
  63  20005.05
  64  19438.76
  65  19485.47
  66  19673.65
  67  19490.16
  68  19951.35
  69  20262.58
  70  19777.6
  71  19203.2
  72  19276.31
  73  19530.74
  74  19579.77
  75  19711.56
  76  19889.91
  77  20152.56
  78  20008.29
  79  20510.23
  80  21569.46
  81  21951.02
  82  21956.56
  83  21899.96
  84  21232.75
  85  20842.97
  86  20227.73
  87  20001.47
  88  19952.55
  89  20198.59
  90  20076.29
  91  20335.77
  92  20140.75
  93  20214.77
  94  20024.17
  95  19793.62
  96  19865.62
  97  19896.62
  98  19984.83
  99  20262.14
 100  20878.47
 101  20560.37
 102  19982.41
 103  19837.35
 104  19408.19
 105  19720.87
 106  20048.73
 107  20467.54
 108  20804.39
 109  20595.2
 110  20240.61
 111  19936.43
 112  19864.91
 113  19933.35
 114  20307.15
 115  20009.84
 116  19753.45
 117  19536.61
 118  19460.27
 119  19301.63
 120  19259.19
 121  19417.59
 122  19989.08
 123  20000.78
 124  19679.83
 125  19566
 126  19171.53
 127  19374.87
 128  19207.63
 129  19242.6
 130  19326.71
 131  19682.81
 132  19858.75
 133  19642.71
 134  19656.74
 135  19761.09
 136  19354.65
 137  19756.88
 138  19640.25
 139  19720.94
 140  19613.84
 141  19628.56
 142  19701.29
 143  19328.21
 144  18967.77
 145  19434.8
 146  18962.43
 147  19219.4
 148  19512.69
 149  19210.13
 150  19034.06
 151  18804.54
 152  18682.68
 153  18633.59
 154  18745.9
 155  18689.45
 156  19210.98
 157  19055.86
 158  18865.84
 159  18853.06
 160  19145.07
 161  18773.69
 162  18705
 163  19086.66
 164  19170.22
 165  18590.53
 166  18640.81
 167  18844.87
 168  18733.02
 169  18593.34
 170  18535.33
 171  18479.05
 172  18673.59
 173  18996.36
 174  19438.23
 175  19418.17
 176  19614.45
 177  19933.54
 178  19286.33
 179  19006.22
 180  19071.28
 181  19617.68
 182  19930.88
 183  19730.31
 184  19715.27
 185  19328.55
 186  19354.98
 187  19243.02
 188  18592.9
 189  18369.92
 190  18222.52
 191  18206.58
 192  18468.43
 193  18619.29
 194  18275.18
 195  18097.2
 196  17930.57
 197  17318.09
 198  17358.06
 199  17631.99
 200  17970.88
 201  17718.9
 202  17701.85
 203  17646.29
 204  17038.54
 205  17143.88
 206  17044.26
 207  17199.62
 208  17048
 209  17522.98
 210  17587.77
 211  17954
 212  17771.28
 213  17479.08
 214  17273.41
 215  17580.52
 216  17808.71
 217  17476.51
 218  17219.2
 219  16991.5
 220  17621.25
 221  17709.44
 222  17986.2
 223  18383.39
 224  18045.03
 225  17540.96
 226  18056.5
 227  17889.37
 228  17766.54
 229  18027.59
 230  17903.43
 231  18240.7
 232  18222.25
 233  18057.86
 234  17972.02
 235  18182.98
 236  18024.77
 237  17658.38
 238  17949.58
 239  18160.62
 240  17925.8
 241  17886.21
 242  17671.92
 243  17948.82
 244  17939.57
 245  17927.26
 246  18034.25
 247  18337.95
 248  18076.8
 249  17804.42
 250  17977.24
 251  18531.02
 252  18400.03
 253  18805.57
 254  18305.1
 255  18091.81
 256  18526.97
 257  18682.54
 258  18893.32
 259  18739.94
 260  18843.51
 261  19012.91
 262  18510
 263  18701.41
 264  18822.56
 265  18980.53
 266  18642.2
 267  18648.78
 268  19015.75
 269  19120.51
 270  18942.01
 271  18358.28
 272  18223.86
 273  18037.51
 274  17761.22
 275  17769.66
 276  18129.13
 277  18128.9
 278  18320.35
 279  18509.37
 280  18140.89
 281  17978.23
 282  17893.66
 283  18149.56
 284  18270.93
 285  18451.08
 286  18452.56
 287  18345.47
 288  18176.73
 289  18015.72
 290  18046.81
 291  18061.54
 292  18732.97
 293  18858.62
 294  18897.54
 295  18474.51
 296  18307.34
 297  18315.4
 298  18720.95
 299  19241.96
 300  18889.99
 301  18433.26
 302  18566.7
 303  18982.2
 304  18874
 305  18882.99
 306  19019.7
 307  18375.86
 308  18344.41
 309  18381.8
 310  18296.91
 311  18629.92
 312  18424.8
 313  18480.41
 314  18392.62
 315  18434.47
 316  18267.26
 317  17994.51
 318  18804.99
 319  18838.81
 320  18731.14
 321  18653.64
 322  19097.5
 323  19256.08
 324  19352.84
 325  19303.2
 326  19303.18
 327  19697.27
 328  19591.54
 329  19209.59
 330  19148.01
 331  18879.79
 332  18736.79
 333  18815.59
 334  18472.66
 335  18472.09
 336  18641.56
 337  18505.53
 338  18503.38
 339  18583.46
 340  18831.98
 341  18921.1
 342  18556.92
 343  18561.1
 344  18555.89
 345  18715.85
 346  18647.48
 347  18569.14
 348  18389.06
 349  18026.61
 350  18360.33
 351  18820.93
 352  18890.27
 353  19055.26
 354  19137.56
 355  18904.6
 356  19010.91
 357  19392.19
 358  19181.29
 359  19742.92
 360  20103.08
 361  20039.25
 362  20004.61
 363  20077.36
 364  19912.13
 365  19752.2
 366  19699.25
 367  19525.13
 368  19500.06
 369  19272
 370  19139.51
 371  19035.79
 372  19208.94
 373  19373.73
 374  19147.15
 375  19484.55
 376  19539.55
 377  19383.4
 378  19058.89
 379  19084.97
 380  18913.58
 381  18991.7
 382  19354.72
 383  19232.22
 384  19375.49
 385  19610.72
 386  19448.99
 387  19288.98
 388  19471.28
 389  19488.9
 390  19524.66
 391  19100.72
 392  18749.12
 393  18691.1
 394  17962.54
 395  17895.33
 396  18564.16
 397  18659.36
 398  18430.34
 399  18503.77
 400  18306.38
 401  17822.33
 402  17762.43
 403  17845.45
 404  18055.43
 405  18010.09
 406  17969.22
 407  17587.82
 408  17256.46
 409  17224.3
 410  17220.28
 411  17246.16
 412  17455.14
 413  17737.64
 414  17792.95
 415  17359.63
 416  17198.23
 417  16976.83
 418  17151.34
 419  17644.42
 420  17755.85
 421  17502.13
 422  17850.81
 423  18062.8
 424  17657.03
 425  17972.29
 426  18417.04
 427  17592.58
 428  17371.08
 429  17356.73
 430  17264.57
 431  16839.1
 432  17062.67
 433  17499.47
 434  17742.74
 435  17260.11
 436  16671.04
 437  16633.52
 438  16988.69
 439  17210.22
 440  17497.9
 441  17489.98
 442  17238.5
 443  17472.44
 444  17487.5
 445  17713.93
 446  17794.93
 447  17344.59
 448  17315.54
 449  17225.22
 450  17265.83
 451  17156.22
 452  17512.27
 453  17419.58
 454  17406.12
 455  17508.42
 456  17768.04
 457  17547.96
 458  17110.97
 459  17592.68
 460  17657.47
 461  17598.87
 462  17812.73
 463  18172.75
 464  18224.26
 465  17914.91
 466  17514.15
 467  17580.43
 468  17167.58
 469  17426.67
 470  17377.5
 471  17216.27
 472  16912.6
 473  16933.38
 474  16993.62
 475  16665.2
 476  16616.68
 477  16689.9
 478  16611.01
 479  16651.87
 480  16819.54
 481  16844.88
 482  16677.63
 483  16462.44
 484  16648.26
 485  16617.98
 486  16375.09
 487  16668.63
 488  17006.03
 489  16744.02
 490  16420.16
 491  16131.51
 492  16264.2
 493  16435.49
 494  16441.81
 495  16432.99
 496  16132.14
 497  15921.55
 498  15759.66
 499  15370.87
 500  15484.62
 501  15707.06
 502  15805.62
 503  15866.2
 504  16366.07
 505  15987.9
 506  15365.24
 507  15190.27
 508  15925.89
 509  16354.51
 510  16266.04
 511  16438.03
