# Input file       =  1205238896.100999_cleaned.dat
# Candidate        =  PSR_0332+5434
# Telescope        =  AR
# Epoch_topo       =  58193.524480335640
# Epoch_bary       =  N/A
# T_sample         =  0.002
# Data Folded      =  7340032
# Data Avg         =  0.0602829081825411
# Data StdDev      =  3.8138575466412  
# Profile Bins     =  512
# Profile Avg      =  864.124908611579 
# Profile StdDev   =  456.644744367795 
# Reduced chi-sqr  =  0.975
# Prob(Noise)      <  0.65   (~0.0 sigma)
# P_topo (ms)      =  714.57708502565   +/- 0.00024
# P'_topo (s/s)    =  -0                +/- 1.27e-10
# P''_topo (s/s^2) =  0                 +/- 5.6e-14
# P_bary (ms)      =  N/A
# P'_bary (s/s)    =  N/A
# P''_bary (s/s^2) =  N/A
# P_orb (s)        =  N/A
# asin(i)/c (s)    =  N/A
# eccentricity     =  N/A
# w (rad)          =  N/A
# T_peri           =  N/A
######################################################
   0  1163.697
   1  1110.981
   2  515.6803
   3  438.4948
   4  1014.522
   5  799.7273
   6  1128.287
   7  1097.346
   8  1140.101
   9  944.7041
  10  886.3294
  11  834.554
  12  899.3657
  13  1099.198
  14  1332.01
  15  1069.935
  16  1234.36
  17  1145.744
  18  635.1266
  19  572.7197
  20  723.4128
  21  754.3802
  22  969.8994
  23  880.3629
  24  699.3896
  25  543.6191
  26  689.6217
  27  648.0455
  28  646.0671
  29  863.8203
  30  1083.408
  31  1111.666
  32  1287.336
  33  1156.917
  34  1099.421
  35  1292.774
  36  1138.362
  37  1363.334
  38  1109.499
  39  981.0863
  40  1121.289
  41  1014.303
  42  1141.45
  43  1139.911
  44  1069.776
  45  1166.944
  46  922.7126
  47  794.8197
  48  816.8371
  49  732.601
  50  1342.356
  51  988.1393
  52  934.2395
  53  1290.543
  54  1296.23
  55  1445.432
  56  1178.796
  57  781.1832
  58  1039.061
  59  1425.422
  60  1288.397
  61  1199.248
  62  1264.367
  63  1180.69
  64  1238.336
  65  895.6745
  66  963.7345
  67  844.2237
  68  672.877
  69  1149.269
  70  1263.407
  71  858.1302
  72  623.5621
  73  886.0815
  74  743.2376
  75  533.1396
  76  510.721
  77  885.3549
  78  1186.584
  79  1025.373
  80  923.0202
  81  915.7653
  82  721.9617
  83  1063.211
  84  1469.3
  85  1249.196
  86  1064.92
  87  903.4611
  88  725.4756
  89  906.3253
  90  1015.203
  91  644.2977
  92  737.278
  93  816.6171
  94  357.4012
  95  390.4276
  96  414.4454
  97  734.3861
  98  829.3655
  99  844.6873
 100  677.7411
 101  361.0734
 102  363.8131
 103  858.076
 104  614.2755
 105  703.1321
 106  858.6794
 107  800.2597
 108  787.8622
 109  287.6335
 110  547.509
 111  617.2313
 112  758.4382
 113  1143.641
 114  1126.714
 115  629.6095
 116  462.4006
 117  898.0255
 118  748.8286
 119  422.1763
 120  440.4486
 121  1070.376
 122  935.6063
 123  792.4735
 124  649.8239
 125  521.4581
 126  447.3824
 127  713.8326
 128  677.0208
 129  785.3806
 130  859.0916
 131  864.8367
 132  989.5971
 133  896.7888
 134  695.9943
 135  485.1679
 136  979.9204
 137  1219.193
 138  1184.174
 139  845.4003
 140  595.3569
 141  668.8235
 142  667.0463
 143  1147.344
 144  1043.547
 145  716.3184
 146  937.1708
 147  1023
 148  1223.96
 149  1370.306
 150  813.6664
 151  530.5485
 152  570.08
 153  811.8932
 154  638.0983
 155  854.8699
 156  1035.591
 157  942.1569
 158  970.4276
 159  670.2195
 160  1161.741
 161  1134.352
 162  933.6642
 163  851.7671
 164  1195.8
 165  1374.37
 166  802.2574
 167  823.6779
 168  975.8602
 169  656.5137
 170  107.4247
 171  -0.5637563
 172  368.7238
 173  915.0569
 174  1031.041
 175  931.9
 176  1078.226
 177  1218.067
 178  1083.388
 179  998.2042
 180  1152.762
 181  860.2261
 182  1123.669
 183  1481.927
 184  1465.501
 185  1131.576
 186  871.5189
 187  967.0633
 188  1219.101
 189  880.3705
 190  1018.239
 191  1043.491
 192  1218.086
 193  1281.369
 194  1136.547
 195  1164.213
 196  1034.04
 197  1066.681
 198  844.8019
 199  1135.053
 200  1096.699
 201  906.719
 202  841.6005
 203  526.6176
 204  558.9884
 205  442.5292
 206  115.1981
 207  420.3403
 208  594.8932
 209  698.9771
 210  611.364
 211  528.0367
 212  813.0358
 213  934.6224
 214  767.8668
 215  723.1888
 216  528.0869
 217  674.8124
 218  762.577
 219  511.2609
 220  937.1303
 221  1258.027
 222  1397.579
 223  978.0308
 224  606.8199
 225  728.0883
 226  820.1848
 227  917.4602
 228  1102.485
 229  861.6442
 230  447.3734
 231  702.8375
 232  783.1954
 233  833.3526
 234  691.452
 235  1036.424
 236  831.2255
 237  548.5554
 238  289.5902
 239  434.5829
 240  706.3492
 241  859.8074
 242  745.4037
 243  752.8663
 244  553.4149
 245  672.8007
 246  1335.51
 247  1020.694
 248  944.8199
 249  730.0504
 250  216.7787
 251  235.9027
 252  790.4639
 253  866.7565
 254  846.898
 255  643.5374
 256  653.598
 257  595.4905
 258  523.5692
 259  345.2105
 260  668.2551
 261  822.8662
 262  872.9623
 263  867.0856
 264  834.5074
 265  703.8018
 266  626.1293
 267  705.4263
 268  808.8055
 269  814.5551
 270  879.1492
 271  1241.852
 272  910.4227
 273  790.5466
 274  924.8394
 275  1218.246
 276  1150.403
 277  775.8217
 278  983.0078
 279  1036.07
 280  683.4716
 281  898.2936
 282  730.0858
 283  656.4751
 284  635.2286
 285  363.5696
 286  486.6515
 287  638.3134
 288  776.7323
 289  924.9818
 290  1363.814
 291  1463.437
 292  1591.132
 293  1651.307
 294  1516.213
 295  1058.34
 296  904.1889
 297  1280.729
 298  1199.272
 299  1599.537
 300  1952.863
 301  1745.666
 302  2184.874
 303  2300.869
 304  2521.989
 305  2303.622
 306  2057.002
 307  1200.853
 308  835.6028
 309  1123.487
 310  1182.266
 311  1008.278
 312  976.2174
 313  974.2063
 314  911.5083
 315  870.5157
 316  871.1824
 317  839.2712
 318  942.0634
 319  978.246
 320  1128.741
 321  834.5133
 322  681.2163
 323  930.0112
 324  590.848
 325  282.3163
 326  443.8081
 327  825.2574
 328  468.5135
 329  534.96
 330  410.3642
 331  745.2367
 332  809.7518
 333  739.6547
 334  742.1684
 335  788.7863
 336  743.4288
 337  791.7009
 338  979.4697
 339  1257.364
 340  1022.437
 341  982.9358
 342  1014.422
 343  864.9089
 344  640.5547
 345  1068.045
 346  1202
 347  1207.584
 348  970.6073
 349  1073.166
 350  749.2614
 351  763.6678
 352  1029.877
 353  1243.11
 354  1371.35
 355  1046.613
 356  892.1304
 357  1089.238
 358  1054.438
 359  581.8658
 360  1101.535
 361  1343.278
 362  1360.111
 363  1297.516
 364  1061.05
 365  1178.158
 366  1269.429
 367  1176.801
 368  1062.646
 369  1408.888
 370  1227.353
 371  1246.52
 372  1239.707
 373  1017.101
 374  992.6521
 375  1370.432
 376  1007.599
 377  617.5485
 378  800.9836
 379  1279.379
 380  1146.383
 381  874.2715
 382  878.6207
 383  781.9901
 384  964.3112
 385  919.4308
 386  609.6312
 387  437.126
 388  475.3637
 389  963.4757
 390  1264.439
 391  750.524
 392  522.0163
 393  698.2714
 394  660.3325
 395  645.5756
 396  714.8776
 397  659.5704
 398  676.0618
 399  954.4504
 400  519.539
 401  497.7364
 402  757.3136
 403  873.1387
 404  992.6537
 405  963.4109
 406  844.6934
 407  1193.721
 408  877.798
 409  585.0967
 410  600.1355
 411  593.7742
 412  382.8275
 413  987.95
 414  783.7727
 415  379.0019
 416  149.7117
 417  549.7108
 418  996.7117
 419  996.8491
 420  1297.436
 421  687.3679
 422  675.7537
 423  852.3571
 424  870.9853
 425  814.4733
 426  587.7024
 427  589.6575
 428  418.9427
 429  407.3683
 430  450.4388
 431  506.8456
 432  595.6811
 433  397.6794
 434  631.4689
 435  538.5795
 436  428.4408
 437  632.2162
 438  1168.432
 439  1182.105
 440  1012.774
 441  733.088
 442  1082.681
 443  1110.263
 444  850.5432
 445  665.0391
 446  1077.673
 447  999.1418
 448  990.1259
 449  984.3295
 450  523.8901
 451  417.2729
 452  578.2106
 453  719.3669
 454  722.9021
 455  289.3766
 456  185.5173
 457  841.8932
 458  863.769
 459  313.3074
 460  360.1334
 461  637.4229
 462  719.3701
 463  812.5916
 464  890.1526
 465  481.1111
 466  567.0176
 467  752.4045
 468  481.5162
 469  563.3527
 470  744.0841
 471  607.0186
 472  567.9276
 473  827.3351
 474  888.1717
 475  637.1848
 476  1250.612
 477  1305.066
 478  696.7449
 479  431.8736
 480  662.8594
 481  1061.123
 482  841.999
 483  564.7728
 484  567.8602
 485  634.1206
 486  484.8407
 487  513.2067
 488  401.7971
 489  190.2705
 490  155.5773
 491  279.8132
 492  223.0995
 493  435.0658
 494  243.5224
 495  450.7812
 496  337.1275
 497  481.1835
 498  537.6476
 499  496.9667
 500  309.6017
 501  727.0957
 502  640.5918
 503  609.9609
 504  966.5343
 505  1147.958
 506  720.8182
 507  864.9692
 508  982.8319
 509  977.0432
 510  1418.715
 511  1292.526
