# Input file       =  1205411064.114981_cleaned.dat
# Candidate        =  PSR_0332+5434
# Telescope        =  AR
# Epoch_topo       =  58195.517165682650
# Epoch_bary       =  N/A
# T_sample         =  0.002
# Data Folded      =  7340032
# Data Avg         =  0.0521495570761292
# Data StdDev      =  6.32756025213608 
# Profile Bins     =  512
# Profile Avg      =  747.396572018978 
# Profile StdDev   =  757.618001845189 
# Reduced chi-sqr  =  0.780
# Prob(Noise)      <  1   (~0.0 sigma)
# P_topo (ms)      =  714.576337565428  +/- 0.000736
# P'_topo (s/s)    =  -0                +/- 3.88e-10
# P''_topo (s/s^2) =  0                 +/- 1.71e-13
# P_bary (ms)      =  N/A
# P'_bary (s/s)    =  N/A
# P''_bary (s/s^2) =  N/A
# P_orb (s)        =  N/A
# asin(i)/c (s)    =  N/A
# eccentricity     =  N/A
# w (rad)          =  N/A
# T_peri           =  N/A
######################################################
   0  304.749
   1  490.922
   2  468.6568
   3  487.0521
   4  498.7593
   5  824.6471
   6  647.9372
   7  701.3045
   8  699.1455
   9  408.7494
  10  225.7324
  11  335.5208
  12  535.9264
  13  538.2024
  14  595.4224
  15  794.0295
  16  576.3969
  17  358.9606
  18  407.5115
  19  568.2745
  20  491.6813
  21  609.3874
  22  323.604
  23  314.2991
  24  283.9355
  25  -387.1923
  26  -353.6221
  27  286.3175
  28  -326.8732
  29  -194.8626
  30  119.582
  31  404.6186
  32  406.0236
  33  575.1782
  34  520.6826
  35  608.9671
  36  748.9828
  37  657.7208
  38  908.7402
  39  799.3857
  40  716.4171
  41  429.205
  42  598.0791
  43  543.569
  44  1023.399
  45  835.4363
  46  856.8503
  47  874.7815
  48  858.9889
  49  859.2512
  50  626.2187
  51  528.0884
  52  297.1267
  53  514.1406
  54  454.6666
  55  737.9238
  56  508.7282
  57  319.2689
  58  538.2804
  59  808.0052
  60  1191.295
  61  902.4848
  62  1050.115
  63  1047.778
  64  343.5739
  65  612.2672
  66  1089.467
  67  1068.19
  68  1010.263
  69  988.1534
  70  834.9514
  71  566.0137
  72  548.5643
  73  -69.34267
  74  -95.84137
  75  457.9299
  76  278.3189
  77  -242.3823
  78  -350.4755
  79  -163.3084
  80  -401.4325
  81  3.697767
  82  -205.3822
  83  -689.1008
  84  -156.0938
  85  -135.7892
  86  70.7909
  87  143.5903
  88  148.912
  89  246.5284
  90  -61.501
  91  -79.02581
  92  -24.28947
  93  157.4308
  94  -240.5827
  95  -183.321
  96  -15.47392
  97  249.9126
  98  255.9792
  99  102.2858
 100  -13.64925
 101  128.6125
 102  -127.7749
 103  314.4906
 104  143.2989
 105  -26.64234
 106  -114.0217
 107  98.38213
 108  262.4435
 109  597.3467
 110  562.1503
 111  686.6928
 112  314.2417
 113  38.55922
 114  7.787558
 115  190.7874
 116  499.8845
 117  683.3292
 118  691.6071
 119  420.0855
 120  26.13953
 121  335.622
 122  536.8301
 123  185.7371
 124  41.42149
 125  573.0215
 126  606.5167
 127  658.8686
 128  830.0253
 129  949.4918
 130  771.2606
 131  275.7886
 132  901.4306
 133  813.7829
 134  468.9776
 135  525.9329
 136  636.2148
 137  748.2745
 138  652.4918
 139  601.6413
 140  434.6682
 141  310.1024
 142  404.2378
 143  486.6193
 144  441.8626
 145  391.5103
 146  396.5531
 147  468.9733
 148  540.9429
 149  702.3448
 150  793.7978
 151  870.6932
 152  814.3627
 153  590.7783
 154  468.1913
 155  457.8934
 156  661.7988
 157  1101.607
 158  1659.698
 159  1570.146
 160  1245.008
 161  1167.218
 162  1290.858
 163  1122.123
 164  1140.846
 165  1216.883
 166  1181.592
 167  961.8414
 168  1256.172
 169  1349.149
 170  1062.167
 171  1031.883
 172  963.5788
 173  903.4295
 174  1142.661
 175  934.1221
 176  940.0388
 177  974.6569
 178  956.2145
 179  1172.401
 180  1260.669
 181  1311.899
 182  1377.283
 183  1599.348
 184  1493.574
 185  1603.456
 186  1687.331
 187  1667.187
 188  1108.08
 189  1138.493
 190  1070.843
 191  956.4592
 192  1121.208
 193  1039.26
 194  843.0587
 195  732.2787
 196  687.3953
 197  407.5108
 198  433.4284
 199  479.2091
 200  516.8472
 201  477.593
 202  495.0395
 203  794.4502
 204  770.4262
 205  925.8096
 206  622.7296
 207  788.5152
 208  1091.402
 209  1164.059
 210  945.318
 211  858.0618
 212  1038.099
 213  1425.261
 214  1565.715
 215  1558.501
 216  1098.548
 217  1147.431
 218  1227.117
 219  1107.128
 220  917.218
 221  686.0101
 222  834.1149
 223  1035.361
 224  802.9949
 225  1324.459
 226  1254.026
 227  1290.943
 228  1339.107
 229  1002.543
 230  1334.76
 231  1260.716
 232  1360.415
 233  2245.994
 234  2587.138
 235  2623.236
 236  2716.841
 237  2152.456
 238  1028.403
 239  940.8245
 240  910.1504
 241  988.9966
 242  1126.806
 243  796.3997
 244  347.8792
 245  546.4091
 246  802.0884
 247  747.4551
 248  554.3479
 249  501.7509
 250  603.3043
 251  591.7777
 252  540.5444
 253  529.7735
 254  221.358
 255  -52.91918
 256  486.7756
 257  1221.748
 258  924.1231
 259  899.6837
 260  867.164
 261  478.3537
 262  809.4525
 263  820.5182
 264  733.7224
 265  723.5006
 266  732.4135
 267  885.8486
 268  559.6374
 269  743.4089
 270  1324.251
 271  861.1633
 272  520.2969
 273  466.629
 274  832.0474
 275  804.54
 276  511.886
 277  401.4256
 278  309.3606
 279  318.1989
 280  505.1219
 281  587.3233
 282  461.8144
 283  718.1317
 284  682.5082
 285  344.2793
 286  247.7332
 287  274.4065
 288  845.5245
 289  241.9001
 290  230.7458
 291  461.5436
 292  675.8847
 293  855.9393
 294  998.6528
 295  998.9
 296  567.9445
 297  148.9202
 298  8.101004
 299  187.687
 300  623.989
 301  591.2209
 302  628.3896
 303  782.918
 304  953.9349
 305  709.4554
 306  667.1951
 307  747.8495
 308  974.6477
 309  888.6483
 310  1113.85
 311  1548.718
 312  886.1004
 313  585.8091
 314  660.1835
 315  840.8755
 316  929.5615
 317  1241.18
 318  1314.522
 319  1088.795
 320  818.5147
 321  947.5587
 322  1323.717
 323  1347.381
 324  1067.113
 325  1160.245
 326  1122.941
 327  1205.43
 328  1236.414
 329  1605.948
 330  1900.752
 331  1955.248
 332  1532.324
 333  1668.013
 334  1363.905
 335  1179.512
 336  1352.735
 337  1532.41
 338  1543.245
 339  1418.885
 340  1744.236
 341  1503.587
 342  1280.14
 343  1115.944
 344  1311.1
 345  1323.273
 346  1101.264
 347  1338.816
 348  1628.422
 349  1581.869
 350  1402.428
 351  1672.359
 352  1616.394
 353  1517.09
 354  1192.119
 355  1485.657
 356  1743.426
 357  1387.712
 358  1482.591
 359  1353.482
 360  1065.539
 361  1319.014
 362  846.1968
 363  854.8926
 364  1151.853
 365  912.06
 366  916.9749
 367  1273.181
 368  1297.592
 369  944.6613
 370  664.2134
 371  613.1069
 372  809.3243
 373  489.8765
 374  611.7729
 375  416.3375
 376  260.0033
 377  319.7355
 378  52.78741
 379  -103.3563
 380  14.6625
 381  -284.7253
 382  -190.0737
 383  -218.8546
 384  -56.00855
 385  -53.91386
 386  -163.7947
 387  148.8408
 388  477.8805
 389  600.1158
 390  435.6036
 391  429.0267
 392  913.5667
 393  655.8065
 394  472.6566
 395  418.1381
 396  603.168
 397  1208.234
 398  1558.22
 399  1532.591
 400  1550.052
 401  1368.316
 402  982.0697
 403  1142.906
 404  1501.85
 405  1483.936
 406  1490.36
 407  1121.715
 408  1199.371
 409  1108.001
 410  1271.631
 411  1589.48
 412  1446.339
 413  1323.138
 414  1035.496
 415  706.0001
 416  866.2256
 417  933.879
 418  705.6786
 419  451.3559
 420  446.5639
 421  900.2451
 422  652.2534
 423  696.4876
 424  696.2131
 425  446.9679
 426  275.1159
 427  624.6479
 428  636.9244
 429  85.27422
 430  221.5098
 431  345.3853
 432  -32.08265
 433  -172.9549
 434  189.6785
 435  439.378
 436  457.7298
 437  468.7406
 438  515.0711
 439  333.1048
 440  388.8592
 441  654.662
 442  473.1017
 443  492.7909
 444  666.0815
 445  779.0576
 446  530.146
 447  498.5881
 448  703.2947
 449  691.7168
 450  808.7732
 451  649.8287
 452  504.23
 453  548.2954
 454  433.0033
 455  593.1286
 456  970.5099
 457  1181.695
 458  653.8018
 459  522.1566
 460  344.2686
 461  609.2271
 462  883.7821
 463  788.8917
 464  1009.992
 465  1183.764
 466  944.7014
 467  1174.963
 468  1056.789
 469  1180.295
 470  1512.7
 471  1452.197
 472  1132.448
 473  775.0187
 474  878.4463
 475  1108.729
 476  1370.03
 477  866.8459
 478  658.1976
 479  1155.534
 480  798.7358
 481  823.1288
 482  833.1895
 483  705.2261
 484  1116.304
 485  1113.597
 486  526.6461
 487  451.5703
 488  570.5909
 489  593.6066
 490  736.2642
 491  1104.406
 492  1185.093
 493  927.4628
 494  642.8591
 495  1059.304
 496  587.1729
 497  433.6065
 498  329.2284
 499  439.8544
 500  628.556
 501  630.5586
 502  762.2082
 503  381.9407
 504  503.5058
 505  594.2403
 506  640.4601
 507  352.9694
 508  661.5446
 509  861.7331
 510  300.5023
 511  43.78611
