# Input file       =  1205167077.107159_cleaned.dat
# Candidate        =  PSR_0332+5434
# Telescope        =  AR
# Epoch_topo       =  58192.693241981004
# Epoch_bary       =  N/A
# T_sample         =  0.002
# Data Folded      =  7340032
# Data Avg         =  0.0412712605830163
# Data StdDev      =  3.35873921276238 
# Profile Bins     =  512
# Profile Avg      =  591.610398053425 
# Profile StdDev   =  402.152044341749 
# Reduced chi-sqr  =  1.132
# Prob(Noise)      <  0.0208   (~2.0 sigma)
# P_topo (ms)      =  714.577701384787  +/- 0.000446
# P'_topo (s/s)    =  -0                +/- 2.36e-10
# P''_topo (s/s^2) =  0                 +/- 1.04e-13
# P_bary (ms)      =  N/A
# P'_bary (s/s)    =  N/A
# P''_bary (s/s^2) =  N/A
# P_orb (s)        =  N/A
# asin(i)/c (s)    =  N/A
# eccentricity     =  N/A
# w (rad)          =  N/A
# T_peri           =  N/A
######################################################
   0  720.8016
   1  510.0139
   2  542.424
   3  462.9234
   4  212.0732
   5  246.6277
   6  609.8682
   7  532.3185
   8  94.78535
   9  64.22743
  10  246.7214
  11  459.5687
  12  498.3063
  13  693.1688
  14  747.796
  15  782.4372
  16  720.4321
  17  597.348
  18  133.2093
  19  315.922
  20  649.482
  21  825.7433
  22  708.9641
  23  823.2778
  24  874.7386
  25  656.1647
  26  507.5693
  27  332.9554
  28  722.0678
  29  464.9254
  30  228.3019
  31  277.7043
  32  90.42651
  33  354.8592
  34  629.3824
  35  437.4997
  36  585.1193
  37  882.0168
  38  752.0063
  39  358.9786
  40  635.2123
  41  781.7338
  42  673.1694
  43  480.8999
  44  312.4054
  45  705.9048
  46  729.9155
  47  1056.963
  48  857.0303
  49  739.1794
  50  1022.386
  51  808.869
  52  248.7429
  53  188.9279
  54  908.4994
  55  1256.818
  56  841.0082
  57  744.8348
  58  751.9967
  59  854.0133
  60  1148.377
  61  1257.977
  62  736.248
  63  741.6443
  64  535.4393
  65  1009.393
  66  1009.934
  67  796.037
  68  735.7957
  69  554.0994
  70  673.6162
  71  1072.95
  72  960.0638
  73  991.2266
  74  731.7855
  75  493.7102
  76  294.7604
  77  27.55428
  78  338.3641
  79  579.4632
  80  789.1486
  81  860.4799
  82  576.4998
  83  735.4457
  84  849.3138
  85  795.4317
  86  476.2661
  87  569.9041
  88  757.9169
  89  1090.516
  90  886.8428
  91  668.7388
  92  645.5564
  93  679.506
  94  348.2933
  95  475.8984
  96  729.8044
  97  726.2764
  98  998.9703
  99  1032.569
 100  899.0216
 101  653.8018
 102  646.45
 103  911.4713
 104  814.5844
 105  359.9681
 106  607.0197
 107  744.0244
 108  807.5212
 109  472.6251
 110  521.8689
 111  443.9147
 112  645.0123
 113  745.7644
 114  910.8528
 115  687.5167
 116  970.2962
 117  790.8766
 118  858.4579
 119  765.1039
 120  684.3445
 121  1239.798
 122  1009.899
 123  896.2262
 124  1409.128
 125  1208.179
 126  646.0422
 127  538.8845
 128  810.616
 129  1033.382
 130  1117.088
 131  1029.449
 132  1010.308
 133  778.8782
 134  506.7134
 135  554.7045
 136  776.9194
 137  499.302
 138  751.8731
 139  886.0897
 140  869.4562
 141  770.2788
 142  1067.455
 143  977.5563
 144  962.4709
 145  797.0789
 146  838.4302
 147  650.766
 148  558.6793
 149  618.2536
 150  584.2643
 151  956.39
 152  963.9533
 153  644.6913
 154  758.0797
 155  930.7323
 156  925.6771
 157  742.5557
 158  655.7173
 159  298.8951
 160  493.548
 161  645.4691
 162  287.2717
 163  445.7318
 164  250.2744
 165  271.7306
 166  261.3977
 167  269.1436
 168  92.97336
 169  89.84839
 170  107.8585
 171  398.0962
 172  388.7104
 173  326.3798
 174  633.3582
 175  723.7033
 176  715.7623
 177  800.2567
 178  692.3058
 179  807.1318
 180  781.8456
 181  730.0276
 182  565.8374
 183  479.9831
 184  414.4381
 185  255.2567
 186  510.0728
 187  512.579
 188  726.9846
 189  510.1703
 190  382.3508
 191  415.9825
 192  505.8556
 193  375.0094
 194  436.0403
 195  523.3647
 196  617.2758
 197  522.5875
 198  107.6622
 199  702.1951
 200  677.5997
 201  484.588
 202  352.2127
 203  321.2284
 204  277.7985
 205  -60.00769
 206  48.43139
 207  83.14748
 208  -35.21437
 209  276.5475
 210  609.7509
 211  159.0451
 212  163.225
 213  274.6472
 214  336.9554
 215  183.9379
 216  539.7043
 217  809.7802
 218  1024.821
 219  709.1937
 220  443.2273
 221  333.7076
 222  347.1117
 223  414.1674
 224  629.2542
 225  533.9794
 226  613.1089
 227  307.1981
 228  421.2554
 229  451.5484
 230  539.6728
 231  622.8026
 232  587.5891
 233  717.2765
 234  607.7937
 235  778.0349
 236  800.0797
 237  592.165
 238  1175.474
 239  933.275
 240  358.9706
 241  598.2997
 242  892.1733
 243  690.7044
 244  704.9852
 245  685.1958
 246  408.4913
 247  489.1196
 248  668.3486
 249  682.7823
 250  433.9366
 251  -13.8945
 252  189.8208
 253  490.2272
 254  689.413
 255  185.8293
 256  102.0058
 257  207.6756
 258  -51.00896
 259  152.2015
 260  596.9785
 261  283.268
 262  288.7046
 263  376.5157
 264  271.1349
 265  530.6523
 266  690.538
 267  477.2475
 268  525.7149
 269  173.9919
 270  44.64714
 271  322.3714
 272  543.0007
 273  782.2803
 274  710.5927
 275  796.458
 276  745.2009
 277  821.6401
 278  1054.384
 279  830.3751
 280  514.0438
 281  622.2176
 282  627.6765
 283  776.3691
 284  519.8521
 285  594.4204
 286  962.1854
 287  799.4246
 288  682.6094
 289  162.9278
 290  447.0286
 291  458.6715
 292  919.55
 293  1037.546
 294  966.3289
 295  772.8939
 296  795.9422
 297  771.6507
 298  775.8694
 299  1144.767
 300  1465.457
 301  1818.783
 302  2280.356
 303  2309.207
 304  2316.589
 305  2194.913
 306  1592.231
 307  1289.764
 308  820.2183
 309  695.7235
 310  506.0393
 311  367.0168
 312  492.7732
 313  797.7822
 314  666.9409
 315  641.7092
 316  563.6078
 317  688.1865
 318  549.847
 319  276.9706
 320  241.5668
 321  358.2226
 322  246.9095
 323  154.3207
 324  81.64695
 325  221.8107
 326  317.8063
 327  426.6363
 328  291.0467
 329  110.6797
 330  -135.6636
 331  200.4474
 332  366.4041
 333  330.9607
 334  546.218
 335  494.1901
 336  811.3964
 337  666.7922
 338  741.0507
 339  714.0186
 340  824.5438
 341  854.1453
 342  259.5869
 343  314.7852
 344  612.189
 345  591.3907
 346  405.2834
 347  296.7285
 348  440.8023
 349  519.1946
 350  230.4489
 351  472.8651
 352  593.8015
 353  569.7654
 354  295.4181
 355  603.6856
 356  628.5648
 357  700.8504
 358  432.6602
 359  412.0934
 360  816.5786
 361  1029.541
 362  796.497
 363  427.4071
 364  621.5564
 365  845.0362
 366  789.6167
 367  935.9444
 368  690.6398
 369  365.8546
 370  535.9886
 371  415.8586
 372  106.9425
 373  146.6124
 374  116.1557
 375  561.0466
 376  837.1386
 377  754.6324
 378  272.139
 379  226.734
 380  435.5557
 381  546.1494
 382  816.7218
 383  745.0906
 384  631.0572
 385  540.6456
 386  598.1674
 387  429.949
 388  706.7008
 389  287.1356
 390  125.3956
 391  263.0693
 392  561.6067
 393  318.598
 394  331.259
 395  432.4727
 396  359.9053
 397  61.32365
 398  16.13863
 399  188.8878
 400  392.3532
 401  685.6294
 402  509.295
 403  424.0828
 404  395.5938
 405  525.038
 406  930.9149
 407  416.1066
 408  699.1147
 409  552.4351
 410  583.65
 411  695.8354
 412  734.6082
 413  824.9305
 414  157.9682
 415  517.0533
 416  707.9482
 417  545.2687
 418  624.3311
 419  549.1733
 420  509.309
 421  393.9801
 422  411.0302
 423  776.1545
 424  800.1968
 425  444.7751
 426  613.5809
 427  875.765
 428  1042.458
 429  796.2304
 430  275.3916
 431  379.1225
 432  858.2081
 433  850.8069
 434  895.5543
 435  483.5679
 436  581.4581
 437  610.0671
 438  280.1523
 439  357.8144
 440  446.2551
 441  425.8298
 442  534.0779
 443  433.2754
 444  267.8814
 445  294.5468
 446  293.4471
 447  425.2303
 448  321.763
 449  293.604
 450  302.4488
 451  497.5062
 452  267.5908
 453  166.6814
 454  377.079
 455  248.4866
 456  150.6847
 457  405.9085
 458  446.7062
 459  847.1096
 460  641.7299
 461  689.6302
 462  331.6751
 463  436.2944
 464  326.7924
 465  599.7882
 466  805.0233
 467  551.4983
 468  663.5755
 469  595.9884
 470  341.7743
 471  152.1916
 472  443.4367
 473  673.5656
 474  576.061
 475  446.0428
 476  648.3257
 477  933.2761
 478  845.1213
 479  631.2901
 480  706.8402
 481  571.7451
 482  488.7493
 483  403.1206
 484  604.261
 485  728.4016
 486  616.9337
 487  530.7924
 488  494.7865
 489  901.9944
 490  607.2538
 491  446.6019
 492  277.674
 493  369.5228
 494  872.4412
 495  875.0857
 496  414.2157
 497  518.894
 498  283.0929
 499  687.4902
 500  248.0475
 501  619.847
 502  543.3681
 503  183.251
 504  576.8317
 505  551.5132
 506  713.7976
 507  570.8564
 508  392.8824
 509  296.7842
 510  742.4723
 511  1117.322
