# Input file       =  1205654617.111455_cleaned.dat
# Candidate        =  PSR_0332+5434
# Telescope        =  AR
# Epoch_topo       =  58198.336066104806
# Epoch_bary       =  N/A
# T_sample         =  0.002
# Data Folded      =  7143424
# Data Avg         =  0.575369587789691
# Data StdDev      =  6.34163947312278 
# Profile Bins     =  512
# Profile Avg      =  8027.44867034439 
# Profile StdDev   =  749.065477859597 
# Reduced chi-sqr  =  1.706
# Prob(Noise)      <  2.86e-21   (~9.4 sigma)
# P_topo (ms)      =  714.575147537912  +/- 1.93e-05
# P'_topo (s/s)    =  -0                +/- 1.05e-11
# P''_topo (s/s^2) =  0                 +/- 4.74e-15
# P_bary (ms)      =  N/A
# P'_bary (s/s)    =  N/A
# P''_bary (s/s^2) =  N/A
# P_orb (s)        =  N/A
# asin(i)/c (s)    =  N/A
# eccentricity     =  N/A
# w (rad)          =  N/A
# T_peri           =  N/A
######################################################
   0  8654.558
   1  8966.915
   2  8919.435
   3  8243.846
   4  7063.05
   5  6643.949
   6  6893.721
   7  7593.939
   8  8342.986
   9  8842.819
  10  8678.565
  11  7953.812
  12  7178.588
  13  6910.601
  14  7191.663
  15  8046.964
  16  8474.53
  17  9353.389
  18  9556.733
  19  9280.624
  20  7963.633
  21  7559.487
  22  7897.67
  23  8528.747
  24  8881.883
  25  8652.367
  26  8626.627
  27  8199.906
  28  7926.546
  29  7548.81
  30  7537.447
  31  7590.219
  32  8657.028
  33  8734.5
  34  8707.724
  35  9075.255
  36  8763.985
  37  7857.411
  38  7362.072
  39  7562.353
  40  7787.361
  41  8320.608
  42  8266.804
  43  8401.363
  44  7949.384
  45  7437.896
  46  7548.734
  47  7673.972
  48  8142.249
  49  8346.083
  50  8524.441
  51  9170.474
  52  9378.212
  53  9069.017
  54  8104.653
  55  7554.33
  56  8103.902
  57  8553.047
  58  8567.115
  59  8968.646
  60  8780.918
  61  8178.778
  62  7594.443
  63  6973.094
  64  7677.539
  65  8112.826
  66  8756.686
  67  9214.072
  68  9685.65
  69  8966.215
  70  7731.58
  71  7781.624
  72  7750.968
  73  8551.567
  74  8752.836
  75  8260.802
  76  8567.064
  77  8113.582
  78  7498.042
  79  6932.715
  80  7184.2
  81  7802.454
  82  8542.207
  83  9392.351
  84  9146.281
  85  8793.597
  86  8283.294
  87  7279.829
  88  7411.979
  89  7840.125
  90  7897.152
  91  8170.644
  92  8614.545
  93  8471.435
  94  7657.873
  95  6876.105
  96  6972.822
  97  7462.236
  98  8004.583
  99  8898.825
 100  9001.524
 101  8991.289
 102  8223.72
 103  7520.89
 104  7339.333
 105  7177.455
 106  7668.361
 107  7943.294
 108  8340.169
 109  8329.75
 110  7878.302
 111  7157.396
 112  6649.425
 113  6651.646
 114  7172.645
 115  7815.916
 116  7684.776
 117  8474.184
 118  8341.825
 119  7889.224
 120  7357.32
 121  6798.048
 122  7191.98
 123  7568.795
 124  7867.404
 125  7834.929
 126  7800.12
 127  7381.864
 128  7001.401
 129  6712.535
 130  6751.041
 131  7481.355
 132  7967.864
 133  8437.793
 134  8371.939
 135  8502.191
 136  7873.539
 137  7076.72
 138  7336.145
 139  7631.152
 140  7591.816
 141  8196.938
 142  8792.863
 143  8159.147
 144  7360.304
 145  7399.353
 146  7431.364
 147  7500.54
 148  8287.538
 149  8970.665
 150  9034.197
 151  9004.916
 152  8383.8
 153  7749.254
 154  7466.352
 155  7763.77
 156  7968.729
 157  8539.479
 158  8662.45
 159  8351.799
 160  8169.616
 161  7430.679
 162  7068.336
 163  7557.661
 164  8115.692
 165  8835.975
 166  9229.201
 167  9448.363
 168  8618.472
 169  7957.766
 170  7796.869
 171  7693.608
 172  8371.354
 173  8712.411
 174  8932.277
 175  9309.802
 176  9034.16
 177  8192.394
 178  7714.896
 179  8075.657
 180  8570.715
 181  8716.013
 182  9113.675
 183  9131.123
 184  8721.688
 185  8519.051
 186  7535.261
 187  7444.333
 188  8056.782
 189  8706.213
 190  8940.928
 191  8611.243
 192  8554.706
 193  7892.749
 194  7301.176
 195  7281.69
 196  7503.261
 197  8122.212
 198  8750.769
 199  9068.254
 200  9187.17
 201  9032.689
 202  8151.862
 203  7559.258
 204  7974.94
 205  8115.861
 206  8395.582
 207  8955.492
 208  8710.002
 209  8039.434
 210  7255.474
 211  7260.73
 212  7215.364
 213  7754.411
 214  8341.152
 215  8922.812
 216  9181.312
 217  8711.169
 218  8213.366
 219  7378.006
 220  7007.142
 221  7557.472
 222  7922.998
 223  8313.463
 224  8476.801
 225  8396.305
 226  7890.34
 227  7148.909
 228  7036.75
 229  6907.328
 230  7520.289
 231  8275.001
 232  8475.716
 233  8329.311
 234  8044.548
 235  7263.082
 236  6699.54
 237  6942.632
 238  7576.258
 239  7914.033
 240  7878.46
 241  8140.465
 242  7715.02
 243  6807.036
 244  6719.376
 245  6905.572
 246  7655.515
 247  8111.557
 248  8762.435
 249  8902.581
 250  9025.812
 251  7880.876
 252  7333.732
 253  7526.335
 254  7609.941
 255  7560.877
 256  7795.177
 257  8226.029
 258  8280.383
 259  7639.544
 260  7031.486
 261  6964.313
 262  7654.498
 263  8035.912
 264  8293.896
 265  8703.152
 266  9037.135
 267  8725.062
 268  8065.411
 269  7051.059
 270  6698.376
 271  7696.919
 272  8217.072
 273  8212.189
 274  8232.417
 275  8370.566
 276  7823.807
 277  7205.65
 278  7119.978
 279  7134.208
 280  8318.845
 281  9172.601
 282  8901.725
 283  9127.41
 284  8466.255
 285  7913.007
 286  7739.495
 287  7782.448
 288  7983.894
 289  8605.183
 290  8731.735
 291  8775.577
 292  8437.218
 293  7471.484
 294  7096.705
 295  7311.782
 296  7946.977
 297  8852.187
 298  9194.939
 299  9418.876
 300  9289.658
 301  7953.764
 302  7237.896
 303  7619.257
 304  8022.904
 305  8535.49
 306  8842.25
 307  8994.984
 308  8410.372
 309  7490.695
 310  7355.653
 311  8048
 312  8514.892
 313  8834.628
 314  8860.407
 315  9071.994
 316  8959.224
 317  8522.23
 318  8130.39
 319  7844.128
 320  7936.954
 321  8596.034
 322  9196.309
 323  9043.36
 324  8867.81
 325  8628.631
 326  7692
 327  7454.777
 328  7743.676
 329  8833.198
 330  9282.739
 331  9560.42
 332  9488.496
 333  8918.659
 334  8076.635
 335  7578.988
 336  8156.146
 337  8804.012
 338  8508.532
 339  8629.718
 340  8865.609
 341  8462.332
 342  8350.206
 343  7699.733
 344  7968.397
 345  8465.471
 346  8878.809
 347  9151.592
 348  9554.014
 349  9227.357
 350  8586.107
 351  7955.392
 352  7401.579
 353  7563.67
 354  8198.014
 355  8606.954
 356  8900.115
 357  8768.176
 358  8128.004
 359  7064.79
 360  6678.04
 361  7127.819
 362  7775.826
 363  8582.011
 364  8995.803
 365  9232.231
 366  9003.171
 367  7732.814
 368  6852.005
 369  6890.831
 370  7634.51
 371  7766.538
 372  8044.033
 373  8011.882
 374  8070.498
 375  7305.774
 376  6798.21
 377  6761.365
 378  7348.156
 379  8059.317
 380  8431.129
 381  8971.363
 382  8696.011
 383  8205.219
 384  7118.981
 385  6825.278
 386  7340.96
 387  7865.845
 388  8289.725
 389  8220.697
 390  8292.019
 391  7484.502
 392  6616.553
 393  6490.929
 394  6834.394
 395  7539.354
 396  8251.036
 397  8594.778
 398  8239.496
 399  7853.893
 400  7587.438
 401  6839.712
 402  7072.076
 403  7547.36
 404  7641.003
 405  7844.758
 406  8060.948
 407  8147.979
 408  7164.346
 409  6466.296
 410  6807.237
 411  7496.455
 412  7805.968
 413  7886.89
 414  8634.4
 415  8930.372
 416  8742.186
 417  8640.754
 418  8337.005
 419  8479.029
 420  8561.824
 421  8551.242
 422  8292.201
 423  8519.034
 424  7934.878
 425  7106.212
 426  6969.386
 427  7054.441
 428  8070.958
 429  8855.388
 430  9149.184
 431  8961.022
 432  8763.577
 433  7696.046
 434  7401.654
 435  7153.933
 436  7875.726
 437  8417.737
 438  8295.796
 439  8683.437
 440  8167.685
 441  7111.203
 442  6602.33
 443  6902.034
 444  7455.437
 445  7858.041
 446  8398.258
 447  8874.737
 448  8923.239
 449  8281.783
 450  7553.372
 451  7063.104
 452  7451.748
 453  7773.742
 454  8466.218
 455  9090.997
 456  8447.532
 457  7660.907
 458  7110.933
 459  6715.12
 460  6969.616
 461  7717.694
 462  8856.91
 463  9199.516
 464  9177.906
 465  8902.63
 466  8137.21
 467  7136.116
 468  7023.321
 469  7394.527
 470  7701.746
 471  7781.477
 472  7981.621
 473  7772.65
 474  7256.911
 475  6985.529
 476  6785.617
 477  6888.122
 478  7696.408
 479  8575.651
 480  8652.457
 481  8160.966
 482  7830.362
 483  7177.536
 484  7200.031
 485  7127.873
 486  7294.07
 487  7551.877
 488  7993.135
 489  8076.399
 490  7682.014
 491  7280.214
 492  6727.917
 493  7199.232
 494  7598.496
 495  8221.901
 496  8805.571
 497  8693.745
 498  8578.027
 499  8195.193
 500  7770.359
 501  7201.513
 502  7539.667
 503  7725.354
 504  7975.238
 505  8109.634
 506  8089.328
 507  7162.477
 508  6851.49
 509  6588.489
 510  6964.896
 511  8021.605
