# Input file       =  1205568517.108477_cleaned.dat
# Candidate        =  PSR_0332+5434
# Telescope        =  AR
# Epoch_topo       =  58197.339538292559
# Epoch_bary       =  N/A
# T_sample         =  0.002
# Data Folded      =  7405568
# Data Avg         =  0.637976209244658
# Data StdDev      =  6.96449494499694 
# Profile Bins     =  512
# Profile Avg      =  9227.6723146769  
# Profile StdDev   =  837.594533070552 
# Reduced chi-sqr  =  1.941
# Prob(Noise)      <  3.7e-33   (~11.9 sigma)
# P_topo (ms)      =  714.575575479668  +/- 2.13e-05
# P'_topo (s/s)    =  -0                +/- 1.11e-11
# P''_topo (s/s^2) =  0                 +/- 4.88e-15
# P_bary (ms)      =  N/A
# P'_bary (s/s)    =  N/A
# P''_bary (s/s^2) =  N/A
# P_orb (s)        =  N/A
# asin(i)/c (s)    =  N/A
# eccentricity     =  N/A
# w (rad)          =  N/A
# T_peri           =  N/A
######################################################
   0  10022.47
   1  9311.938
   2  8613.907
   3  8001.746
   4  8415.938
   5  9203.548
   6  9644.766
   7  9536.723
   8  9017.481
   9  8564.744
  10  9027.505
  11  8649.786
  12  8934.96
  13  9574.841
  14  11223.26
  15  11287.62
  16  10650.75
  17  9187.696
  18  8695.43
  19  8337.375
  20  8330.393
  21  8750.264
  22  9309.067
  23  9773.206
  24  9583.129
  25  8987.342
  26  8323.962
  27  8276.272
  28  8487.118
  29  9086.055
  30  10655.07
  31  11150.54
  32  10467.18
  33  9165.32
  34  8581.201
  35  8561.395
  36  8281.524
  37  8066.871
  38  8539.177
  39  9360.421
  40  8878.701
  41  8332.45
  42  8071.689
  43  8201.488
  44  8914.304
  45  8993.795
  46  10037.43
  47  10551.89
  48  10418.63
  49  9538.702
  50  8740.984
  51  9161.752
  52  8902.17
  53  8588.486
  54  8603.394
  55  9461.834
  56  9604.032
  57  9031.257
  58  8372.261
  59  8470.322
  60  9058.829
  61  9215.641
  62  9607.059
  63  10367.67
  64  11159.08
  65  10384.83
  66  9682.484
  67  9412.037
  68  8723.049
  69  8769.093
  70  9032.795
  71  9657.797
  72  9928.885
  73  10165.19
  74  9339.438
  75  8801.672
  76  8889.157
  77  8950.962
  78  9629.311
  79  9882.957
  80  10881.37
  81  11599.87
  82  10617.55
  83  9588.666
  84  9616.111
  85  9063.234
  86  8668.634
  87  9308.705
  88  10018.27
  89  10462.49
  90  10027.71
  91  8896.534
  92  8750.38
  93  8526.473
  94  8924.89
  95  9575.786
  96  11207.02
  97  11951.46
  98  11100.14
  99  9751.461
 100  8817.31
 101  8691.541
 102  8466.574
 103  8866.625
 104  9563.984
 105  10289.94
 106  9885.471
 107  8776.019
 108  8545.844
 109  8605.349
 110  8961.299
 111  9222.619
 112  10150.63
 113  11080.89
 114  11085.52
 115  10049.01
 116  9189.584
 117  8792.202
 118  8690.737
 119  8522.725
 120  8979.355
 121  9500.94
 122  9976.512
 123  9727.6
 124  8566.427
 125  8675.061
 126  9272.704
 127  9218.228
 128  9472.673
 129  10206.39
 130  10733.44
 131  10103.41
 132  9266.215
 133  9051.621
 134  9062.351
 135  8956.986
 136  9053.79
 137  9320.646
 138  9802.963
 139  9910.072
 140  9108.154
 141  9097.988
 142  9238.774
 143  9623.559
 144  9566.914
 145  10063.94
 146  11100.78
 147  11480.06
 148  10444.34
 149  9690.272
 150  9446.754
 151  8972.108
 152  9078.846
 153  8848.361
 154  9708.311
 155  10643.5
 156  9754.088
 157  9314.64
 158  9398.354
 159  9653.738
 160  9439.407
 161  9891.5
 162  10340.13
 163  11515.02
 164  11648.18
 165  10455.76
 166  9382.381
 167  9049.445
 168  8874.284
 169  8834.533
 170  9797.654
 171  10350.05
 172  10704.57
 173  9816.34
 174  8789.612
 175  8823.037
 176  8999.209
 177  8930.501
 178  10008.05
 179  11035.17
 180  11205.62
 181  10405
 182  9509.641
 183  8973.598
 184  8864.188
 185  9006.121
 186  9158.619
 187  9478.861
 188  9431.619
 189  9179.704
 190  9009.183
 191  8460.658
 192  8136.653
 193  8384.527
 194  9411.402
 195  10299.23
 196  10575.42
 197  10327.42
 198  9024.032
 199  8497.079
 200  8537.73
 201  8691.258
 202  8563.487
 203  8758.252
 204  9478.426
 205  9322.238
 206  8758.978
 207  8288.258
 208  8386.438
 209  8454.171
 210  8338.091
 211  9103.433
 212  10147.69
 213  10385.94
 214  9607.19
 215  8824.754
 216  8300.642
 217  8356.462
 218  7929.104
 219  8019.192
 220  8532.873
 221  8485.785
 222  8445.345
 223  8286.723
 224  8243
 225  7804.68
 226  8453.115
 227  8960.099
 228  9887.582
 229  10690.23
 230  9960.599
 231  9090.624
 232  8788.428
 233  8483.292
 234  8272.802
 235  8292.975
 236  8534.781
 237  9308.588
 238  9548.284
 239  8592.468
 240  7766.524
 241  8295.375
 242  8749.011
 243  9174.544
 244  10122.25
 245  10847.61
 246  10800.19
 247  9831.598
 248  8663.781
 249  8418.516
 250  8540.241
 251  8750.925
 252  8855.919
 253  9459.592
 254  10283.77
 255  9500.234
 256  8721.046
 257  8607.655
 258  8745.927
 259  9219.743
 260  9646.99
 261  10181.98
 262  10808.67
 263  10625.63
 264  9405.368
 265  8418.065
 266  8444.991
 267  8504.389
 268  8624.891
 269  9282.008
 270  9805.417
 271  9488.619
 272  9109.211
 273  8799.934
 274  8684.94
 275  8854.275
 276  9231.963
 277  9700.728
 278  10906.96
 279  11437.87
 280  10379.75
 281  9215.689
 282  8964.073
 283  8947.173
 284  8698.21
 285  9154.768
 286  9179.822
 287  9683.781
 288  9885.787
 289  8988.525
 290  8638.927
 291  8740.682
 292  8660.887
 293  9156.438
 294  10208.52
 295  10937.42
 296  10319.31
 297  9739.618
 298  9582.957
 299  8883.991
 300  9060.223
 301  9190.688
 302  10141.18
 303  11274.38
 304  11023.28
 305  10244.94
 306  9651.533
 307  8992.628
 308  9340.391
 309  9426.266
 310  9934.281
 311  10627.72
 312  10528.3
 313  9714.369
 314  9039.515
 315  8974.962
 316  9052.114
 317  8797.922
 318  8776.116
 319  9134.775
 320  9532.296
 321  9423.971
 322  8793.518
 323  8316.397
 324  8332.299
 325  8460.283
 326  9050.543
 327  10389.98
 328  11190.07
 329  10792.61
 330  9464.931
 331  8648.312
 332  8449.723
 333  8688.99
 334  9058.039
 335  9377.809
 336  9334.925
 337  9970.223
 338  9377.617
 339  8196.861
 340  8342.254
 341  9228.278
 342  9490.168
 343  9827.031
 344  10573.16
 345  10731.64
 346  10047.45
 347  9305.912
 348  8773.761
 349  8867.959
 350  8741.559
 351  8552.736
 352  9092.34
 353  9739.804
 354  9641.057
 355  8887.66
 356  8384.228
 357  8616.237
 358  8567.042
 359  9358.513
 360  10429.61
 361  10927.06
 362  10631.87
 363  9487.162
 364  9117.393
 365  8970.005
 366  8428.407
 367  8580.831
 368  8682.583
 369  9003.372
 370  9030.889
 371  8580.877
 372  8478.896
 373  8724.877
 374  8800.672
 375  8329.294
 376  8872.276
 377  10042.71
 378  11025.26
 379  10145.32
 380  9169.348
 381  8677.962
 382  8377.858
 383  8428.675
 384  8753.104
 385  8971.685
 386  8973.75
 387  9341.126
 388  8723.812
 389  8311.614
 390  8636.084
 391  8726.483
 392  8744.169
 393  9745.998
 394  10809.51
 395  10383.58
 396  9426.757
 397  8572.415
 398  8331.361
 399  8759.981
 400  8786.387
 401  8932.772
 402  9705.125
 403  9498.333
 404  8850.02
 405  8417.662
 406  8367.003
 407  8528.979
 408  9090.316
 409  9624.407
 410  10500
 411  10831.31
 412  9703.388
 413  9044.132
 414  8651.84
 415  8674.967
 416  8233.628
 417  8608.086
 418  9707.357
 419  9574.96
 420  8826.979
 421  7959.856
 422  8032.53
 423  8178.695
 424  8715.126
 425  9542.733
 426  10341.75
 427  11007.07
 428  10712.1
 429  9584.771
 430  8383.747
 431  8295.925
 432  8318.759
 433  8459.273
 434  8997.396
 435  9169.113
 436  9512.2
 437  8708.89
 438  8139.469
 439  8134.329
 440  7814.583
 441  8391.262
 442  8609.034
 443  10137.09
 444  10235.59
 445  9824.651
 446  8794.973
 447  8178.936
 448  7771.196
 449  7535.566
 450  7868.854
 451  8445.333
 452  9305.019
 453  8899.293
 454  8170.104
 455  7729.062
 456  7890.968
 457  8081.246
 458  7958.13
 459  8817.472
 460  9613.689
 461  9927.797
 462  9392.076
 463  8451.271
 464  8039.856
 465  7602.05
 466  7484.829
 467  7783.313
 468  8380.976
 469  8810.345
 470  8270.946
 471  7919.006
 472  8025.487
 473  8035.389
 474  7988.146
 475  8945.717
 476  9545.229
 477  10517.79
 478  9466.028
 479  8295.183
 480  8219.724
 481  7994.156
 482  8020.494
 483  7855.406
 484  8703.425
 485  9141.337
 486  8612.25
 487  7953.76
 488  7933.798
 489  8142.664
 490  8544.237
 491  8770.197
 492  9802.147
 493  10337.52
 494  10168.28
 495  9275.801
 496  8971.777
 497  8600.793
 498  8629.125
 499  8480.135
 500  8469.06
 501  9109.699
 502  9345.66
 503  8897.048
 504  8275.269
 505  8449.69
 506  8598.723
 507  8974.158
 508  9589.248
 509  10273.47
 510  10747.27
 511  10404.55
