# Input file       =  1205482329.110533_cleaned.dat
# Candidate        =  PSR_0332+5434
# Telescope        =  AR
# Epoch_topo       =  58196.341992020061
# Epoch_bary       =  N/A
# T_sample         =  0.002
# Data Folded      =  7405568
# Data Avg         =  0.089012177154534
# Data StdDev      =  1.0002060134729  
# Profile Bins     =  512
# Profile Avg      =  1287.56266484134 
# Profile StdDev   =  120.291147519752 
# Reduced chi-sqr  =  1.592
# Prob(Noise)      <  3.28e-16   (~8.1 sigma)
# P_topo (ms)      =  714.575988509758  +/- 5.25e-05
# P'_topo (s/s)    =  -0                +/- 2.74e-11
# P''_topo (s/s^2) =  0                 +/- 1.2e-14
# P_bary (ms)      =  N/A
# P'_bary (s/s)    =  N/A
# P''_bary (s/s^2) =  N/A
# P_orb (s)        =  N/A
# asin(i)/c (s)    =  N/A
# eccentricity     =  N/A
# w (rad)          =  N/A
# T_peri           =  N/A
######################################################
   0  1232.27
   1  1396.331
   2  1394.744
   3  1355.588
   4  1346.43
   5  1305.892
   6  1198.042
   7  1294.799
   8  1272.719
   9  1385.237
  10  1447.729
  11  1296.542
  12  1157.987
  13  1212.397
  14  1195.556
  15  1234.215
  16  1344.861
  17  1397.722
  18  1371.74
  19  1215.616
  20  1259.212
  21  1204.806
  22  1225.192
  23  1194.555
  24  1191.185
  25  1332.305
  26  1507.923
  27  1430.31
  28  1292.814
  29  1175.321
  30  1144.379
  31  1255.706
  32  1397.956
  33  1632.625
  34  1798.466
  35  1900.087
  36  1922.041
  37  1882.236
  38  1658.958
  39  1557.62
  40  1438.743
  41  1307.075
  42  1218.243
  43  1278.274
  44  1370.609
  45  1197.931
  46  1243.447
  47  1243.875
  48  1214.349
  49  1186.623
  50  1212.37
  51  1333.26
  52  1317.06
  53  1249.268
  54  1208.011
  55  1143.426
  56  1170.41
  57  1091.437
  58  1078.28
  59  1211.021
  60  1215.351
  61  1104.065
  62  1118.301
  63  1125.134
  64  1074.972
  65  1165.102
  66  1271.567
  67  1330.018
  68  1275.395
  69  1223.072
  70  1137.733
  71  1147.629
  72  1182.736
  73  1174.976
  74  1174.514
  75  1276.738
  76  1265.799
  77  1261.906
  78  1290.228
  79  1298.764
  80  1320.208
  81  1289.488
  82  1288.896
  83  1330.432
  84  1325.413
  85  1345.803
  86  1205.449
  87  1147.304
  88  1193.959
  89  1208.851
  90  1317.309
  91  1349.117
  92  1312.461
  93  1320.711
  94  1209.702
  95  1172.272
  96  1166.307
  97  1230.318
  98  1252.635
  99  1197.048
 100  1336.724
 101  1437.855
 102  1241.835
 103  1210.224
 104  1202.794
 105  1305.903
 106  1339.088
 107  1232.292
 108  1219.357
 109  1271.398
 110  1301.563
 111  1188.322
 112  1142.475
 113  1190.331
 114  1094.561
 115  1235.047
 116  1349.941
 117  1403.994
 118  1260.421
 119  1149.637
 120  1255.629
 121  1245.57
 122  1330.506
 123  1357.765
 124  1355.865
 125  1281.547
 126  1297.449
 127  1182.234
 128  1198.891
 129  1211.071
 130  1159.094
 131  1207.311
 132  1427.022
 133  1443.338
 134  1449.395
 135  1243.029
 136  1318.36
 137  1328.457
 138  1356.563
 139  1457.063
 140  1407.7
 141  1436.277
 142  1564.302
 143  1548.579
 144  1256.09
 145  1265.981
 146  1329.765
 147  1282.378
 148  1325.171
 149  1394.407
 150  1337.46
 151  1288.405
 152  1276.551
 153  1325.67
 154  1290.368
 155  1358.292
 156  1272.015
 157  1335.109
 158  1394.824
 159  1311.249
 160  1374.502
 161  1377.284
 162  1388.061
 163  1303.437
 164  1253.921
 165  1344.719
 166  1469.474
 167  1516.142
 168  1486.797
 169  1312.991
 170  1427.309
 171  1475.276
 172  1566.241
 173  1462.154
 174  1378.593
 175  1475.48
 176  1432.922
 177  1401.905
 178  1434.581
 179  1366.966
 180  1558.602
 181  1530.995
 182  1470.959
 183  1503.445
 184  1440.442
 185  1395.275
 186  1369.378
 187  1411.057
 188  1285.916
 189  1323.592
 190  1416.852
 191  1433.113
 192  1335.272
 193  1334.934
 194  1235.651
 195  1253.088
 196  1245.718
 197  1284.991
 198  1322.557
 199  1382.393
 200  1326.007
 201  1323.819
 202  1298.428
 203  1247.332
 204  1237.093
 205  1267.708
 206  1311.182
 207  1289.632
 208  1420.998
 209  1382.915
 210  1196.532
 211  1188.285
 212  1343.537
 213  1356.632
 214  1317.964
 215  1256.023
 216  1415.991
 217  1538.455
 218  1481.157
 219  1415.295
 220  1412.268
 221  1378.688
 222  1230.93
 223  1258.84
 224  1318.197
 225  1379.714
 226  1199.938
 227  1319.486
 228  1296.044
 229  1267.861
 230  1157.211
 231  1276.539
 232  1332.402
 233  1421.145
 234  1378.297
 235  1317.233
 236  1308.125
 237  1277.258
 238  1280.797
 239  1358.476
 240  1373.133
 241  1382.777
 242  1360.548
 243  1285.495
 244  1263.599
 245  1284.261
 246  1196.913
 247  1277.522
 248  1203.441
 249  1297.145
 250  1230.37
 251  1330.387
 252  1308.2
 253  1264.637
 254  1357.077
 255  1300.324
 256  1305.273
 257  1333.33
 258  1395.962
 259  1322.71
 260  1203.802
 261  1268.826
 262  1323.162
 263  1373.715
 264  1362.94
 265  1400.205
 266  1318.198
 267  1338.086
 268  1284.077
 269  1160.358
 270  1243.649
 271  1290.846
 272  1314.849
 273  1342.371
 274  1326.434
 275  1309.001
 276  1265.995
 277  1262.934
 278  1267.855
 279  1221.314
 280  1239.596
 281  1254.671
 282  1392.699
 283  1338.277
 284  1177.217
 285  1170.529
 286  1143.899
 287  1184.353
 288  1265.514
 289  1288.923
 290  1285.255
 291  1286.441
 292  1249.972
 293  1207.234
 294  1229.762
 295  1326.227
 296  1343.387
 297  1395.376
 298  1372.112
 299  1413.057
 300  1387.66
 301  1395.509
 302  1249.793
 303  1229.606
 304  1392.274
 305  1333.605
 306  1433.794
 307  1437.775
 308  1326.36
 309  1322.252
 310  1219.045
 311  1255.679
 312  1347.323
 313  1222.446
 314  1290.172
 315  1386.604
 316  1341.144
 317  1229.965
 318  1148.679
 319  1228.182
 320  1193.167
 321  1197.801
 322  1352.729
 323  1282.269
 324  1282.766
 325  1258.796
 326  1155.447
 327  1125.202
 328  1263.583
 329  1290.481
 330  1286.416
 331  1441.082
 332  1460.678
 333  1265.915
 334  1253.519
 335  1302.585
 336  1317.322
 337  1230.35
 338  1200.99
 339  1370.696
 340  1282.854
 341  1228.143
 342  1176.945
 343  1150.504
 344  1194.631
 345  1279.241
 346  1263.652
 347  1311.783
 348  1403.941
 349  1203.789
 350  1139.635
 351  1133.171
 352  1172.741
 353  1213.535
 354  1210.808
 355  1223.292
 356  1285.406
 357  1239.529
 358  1098.761
 359  916.5153
 360  1013.736
 361  1174.972
 362  1182.326
 363  1178.857
 364  1260.167
 365  1196.568
 366  1272.333
 367  1255.871
 368  1183.911
 369  1289.197
 370  1083.539
 371  1213.48
 372  1299.833
 373  1313.392
 374  1245.87
 375  1134.323
 376  1219.789
 377  1186.375
 378  1322.625
 379  1287.287
 380  1233.232
 381  1239.724
 382  1355.435
 383  1295.515
 384  1207.816
 385  1137.931
 386  1138.478
 387  1114.551
 388  1223.949
 389  1284.419
 390  1298.178
 391  1214.292
 392  1103.854
 393  1125.103
 394  1115.275
 395  1116.051
 396  1143.574
 397  1277.978
 398  1244.572
 399  1238.075
 400  1189.759
 401  1168.913
 402  1262.281
 403  1348.524
 404  1293.59
 405  1171.142
 406  1254.494
 407  1341.232
 408  1253.339
 409  1287.092
 410  1363.817
 411  1212.29
 412  1253.488
 413  1281.984
 414  1401.834
 415  1340.479
 416  1305.104
 417  1362.175
 418  1208.477
 419  1281.135
 420  1313.077
 421  1260.761
 422  1412.705
 423  1340.765
 424  1319.194
 425  1262.429
 426  1307.427
 427  1383.024
 428  1319.066
 429  1337.601
 430  1316.789
 431  1314.828
 432  1306.898
 433  1260.435
 434  1304.474
 435  1322.816
 436  1348.401
 437  1339.052
 438  1352.353
 439  1458.017
 440  1379.521
 441  1237.48
 442  1175.115
 443  1242.198
 444  1319.552
 445  1298.019
 446  1275.432
 447  1464.59
 448  1437.928
 449  1431.29
 450  1373.572
 451  1262.714
 452  1287.479
 453  1283.559
 454  1279.425
 455  1310.703
 456  1367.739
 457  1299.481
 458  1207.56
 459  1165.523
 460  1273.222
 461  1254.65
 462  1239.581
 463  1246.913
 464  1286.135
 465  1219.403
 466  1212.554
 467  1214.751
 468  1238.435
 469  1173.403
 470  1174.59
 471  1239.427
 472  1334.561
 473  1245.195
 474  1100.395
 475  1155.326
 476  1141.529
 477  1120.293
 478  1212.586
 479  1314.893
 480  1412.01
 481  1383.94
 482  1245.895
 483  1224.045
 484  1216.65
 485  1153.547
 486  1143.119
 487  1190.329
 488  1310.896
 489  1277.367
 490  1139.217
 491  1102.548
 492  1227.676
 493  1244.912
 494  1137.317
 495  1195.067
 496  1285.472
 497  1267.185
 498  1241.534
 499  1184.542
 500  1151.477
 501  1159.681
 502  1217.636
 503  1249.379
 504  1221.118
 505  1257.896
 506  1163.101
 507  1134.76
 508  1204.491
 509  1213.479
 510  1258.941
 511  1162.213
