# Input file       =  1205065935.111248_cleaned.dat
# Candidate        =  PSR_0332+5434
# Telescope        =  AR
# Epoch_topo       =  58191.522617028335
# Epoch_bary       =  N/A
# T_sample         =  0.002
# Data Folded      =  7340032
# Data Avg         =  0.644829846320915
# Data StdDev      =  7.22424349753236 
# Profile Bins     =  512
# Profile Avg      =  9243.90935412423 
# Profile StdDev   =  864.980609484659 
# Reduced chi-sqr  =  2.206
# Prob(Noise)      <  1.81e-48   (~14.6 sigma)
# P_topo (ms)      =  714.577753973765  +/- 0.000922
# P'_topo (s/s)    =  -0                +/- 4.87e-10
# P''_topo (s/s^2) =  0                 +/- 2.15e-13
# P_bary (ms)      =  N/A
# P'_bary (s/s)    =  N/A
# P''_bary (s/s^2) =  N/A
# P_orb (s)        =  N/A
# asin(i)/c (s)    =  N/A
# eccentricity     =  N/A
# w (rad)          =  N/A
# T_peri           =  N/A
######################################################
   0  10116.87
   1  9625.864
   2  9200.45
   3  9312.814
   4  9302.301
   5  9459.27
   6  9366.297
   7  9508.556
   8  9720.733
   9  9606.001
  10  9181.243
  11  9160.184
  12  9552.511
  13  9126.345
  14  8985.287
  15  9110.963
  16  9066.446
  17  8706.397
  18  8638.965
  19  8828.779
  20  9229.751
  21  9527.432
  22  9604.646
  23  9477.579
  24  9402.873
  25  9052.851
  26  9163.551
  27  9188.187
  28  9352.47
  29  9212.195
  30  9060.166
  31  9328.842
  32  9450.389
  33  9288.654
  34  9208.276
  35  9196.786
  36  9396.939
  37  9294.429
  38  9538.876
  39  9422.141
  40  9574.764
  41  9559.427
  42  9166.969
  43  9701.105
  44  9292.529
  45  9440.405
  46  9673.551
  47  9775.752
  48  9819.077
  49  9370.625
  50  9523.518
  51  9280.479
  52  9400.281
  53  9562.775
  54  10057.72
  55  9747.862
  56  9647.222
  57  9523.076
  58  9254.115
  59  9310.491
  60  9225.561
  61  9358.353
  62  9426.272
  63  9516.49
  64  9759.78
  65  9530.844
  66  9619.228
  67  9297.016
  68  9079.266
  69  9001.608
  70  9217.683
  71  9647.355
  72  9607.424
  73  9035.09
  74  8838.189
  75  8826.235
  76  8733.717
  77  9209.395
  78  8937.005
  79  9059.334
  80  8825.326
  81  9077.908
  82  9229.96
  83  9085.76
  84  9456.071
  85  9011.158
  86  8839.603
  87  8886.624
  88  9177.135
  89  9481.111
  90  9549.036
  91  9610.134
  92  9103.417
  93  8673.004
  94  8360.442
  95  8563.745
  96  8402.501
  97  8207.386
  98  8442.9
  99  8542.939
 100  8494.795
 101  8454.043
 102  8243.549
 103  8369.524
 104  8640.41
 105  8706.938
 106  8590.125
 107  8201.014
 108  8481.502
 109  8283.363
 110  8445.401
 111  8281.307
 112  8131.679
 113  8291.962
 114  8417.918
 115  8372.497
 116  8260.455
 117  8099.684
 118  8228.517
 119  8032.97
 120  8022.304
 121  8110.742
 122  8503.747
 123  8532
 124  8570.533
 125  8460.94
 126  8544.188
 127  8851.265
 128  8944.715
 129  8531.428
 130  8572.905
 131  8896.704
 132  8246.721
 133  7859.728
 134  7642.858
 135  7601.858
 136  8051.328
 137  8282.033
 138  8456.841
 139  7983.109
 140  8174.066
 141  8038.11
 142  7961.227
 143  8192.484
 144  8248.271
 145  8365.737
 146  8313.298
 147  8666.956
 148  8913.452
 149  8430.135
 150  8068.914
 151  8078.013
 152  8106.481
 153  7931.144
 154  7960.481
 155  7780.506
 156  7849.184
 157  7984.129
 158  8075.81
 159  7746.073
 160  7810.5
 161  7951.825
 162  7877.795
 163  7640.812
 164  7776.654
 165  8313.586
 166  7984.76
 167  7505.718
 168  7506.192
 169  7289.183
 170  7677.745
 171  7747.809
 172  8206.061
 173  7737.603
 174  7553.49
 175  7682.521
 176  7728.026
 177  7745.671
 178  7588.019
 179  8289.071
 180  8245.415
 181  7986.166
 182  7533.267
 183  7357.416
 184  7463.087
 185  7187.024
 186  7769.682
 187  7725.187
 188  7604.753
 189  7448.532
 190  7287.084
 191  7364.897
 192  7415.24
 193  7835.355
 194  7737.855
 195  7795.036
 196  8034.386
 197  8144.709
 198  7923.708
 199  7834.705
 200  7831.622
 201  7885.468
 202  8131.182
 203  7989.994
 204  8391.781
 205  8344.198
 206  7993.479
 207  8160.639
 208  8291.018
 209  8643.624
 210  8449.714
 211  8505.257
 212  8642.003
 213  8584.379
 214  8761.139
 215  9019.858
 216  9460.432
 217  9045.703
 218  9094.722
 219  8827.688
 220  8921.805
 221  8836.482
 222  8892.107
 223  8731.249
 224  8289.655
 225  8244.48
 226  7987.035
 227  8425.214
 228  8333.263
 229  8131.625
 230  7702.031
 231  7458.514
 232  7724.588
 233  7766.564
 234  8027.461
 235  8257.574
 236  8139.312
 237  8276.865
 238  8169.189
 239  7795.213
 240  7821.538
 241  7932.173
 242  8054.214
 243  8403.077
 244  8157.611
 245  8118.488
 246  7998.626
 247  8309.341
 248  8470.363
 249  8490.804
 250  8645.544
 251  8484.45
 252  8428.139
 253  8285.578
 254  8058.602
 255  8492.38
 256  8491.974
 257  8392.767
 258  8276.204
 259  7796.728
 260  8002.195
 261  8271.201
 262  8274.497
 263  8207.957
 264  8446.68
 265  8587.541
 266  8733.873
 267  8896.003
 268  9025.731
 269  8616.921
 270  8608.749
 271  8566.136
 272  8398.801
 273  8122.289
 274  8287.934
 275  8636.353
 276  9006.519
 277  9322.42
 278  8971.809
 279  8797.41
 280  8630.639
 281  8847.299
 282  8794.139
 283  8696.485
 284  9115.176
 285  9366.348
 286  9211.45
 287  9169.765
 288  8758.226
 289  8903.161
 290  9394.048
 291  9445.615
 292  9530.191
 293  9467.835
 294  9309.697
 295  9617.485
 296  9762.868
 297  10373.81
 298  10211.77
 299  10361
 300  10552
 301  10837.48
 302  10936.23
 303  11190.76
 304  11600.51
 305  11091.72
 306  10786.79
 307  10332.36
 308  10099.05
 309  9700.378
 310  9955.221
 311  10355.63
 312  10548.54
 313  9986.534
 314  9896.058
 315  10016.42
 316  9967.685
 317  10211.25
 318  9983.683
 319  10064.85
 320  10148.43
 321  10337.44
 322  10222.08
 323  9935.66
 324  9988.197
 325  9983.25
 326  10254.38
 327  10788.47
 328  10575.88
 329  10215.11
 330  9963.731
 331  10149.39
 332  10247.23
 333  10574.92
 334  10386.89
 335  10222.3
 336  10092.36
 337  9752.638
 338  9570.377
 339  9294.65
 340  9842.204
 341  9759.109
 342  9619.071
 343  9453.214
 344  9235.763
 345  9247.405
 346  9525.195
 347  9834.999
 348  9802.452
 349  10055.18
 350  9999.592
 351  9969.721
 352  9504.742
 353  9673.177
 354  9913.836
 355  10151.5
 356  10400.78
 357  10042.78
 358  9727.396
 359  9665.794
 360  9542.792
 361  9579.241
 362  9725.418
 363  10009.52
 364  9656.626
 365  9412.32
 366  9377.145
 367  9216.231
 368  8946.501
 369  9529.851
 370  9932.461
 371  9875.121
 372  9611.702
 373  9527.311
 374  9888.264
 375  10321.41
 376  10386.6
 377  9996.657
 378  9706.029
 379  9944.1
 380  10028.16
 381  10101.08
 382  9805.917
 383  10142
 384  9881.493
 385  9969.094
 386  9950.392
 387  9777.837
 388  9547.08
 389  9183.511
 390  9773.729
 391  10315.07
 392  10053.04
 393  9796.842
 394  9818.701
 395  9645.346
 396  10086.13
 397  9900.306
 398  9721.719
 399  9725.149
 400  9927.002
 401  10159.91
 402  10127.88
 403  10157.96
 404  9911.287
 405  9830.156
 406  9823.701
 407  10182.43
 408  10117.98
 409  10220.27
 410  10661.36
 411  10664.64
 412  10187.4
 413  10327.61
 414  10371.59
 415  10461.04
 416  10367.86
 417  10424.83
 418  10983.56
 419  10976.22
 420  10924.74
 421  10930.3
 422  10662.19
 423  10925.34
 424  11041.36
 425  10583.57
 426  10582.11
 427  10382
 428  10560.63
 429  10334.92
 430  10143.55
 431  9974.26
 432  10277.8
 433  10505.74
 434  10597.12
 435  10535.21
 436  10393.57
 437  10532.25
 438  10841.61
 439  10955.73
 440  10966.62
 441  10522.2
 442  10462.3
 443  10544.66
 444  10759.11
 445  10669.24
 446  10582.9
 447  10817.62
 448  10617.55
 449  10357.13
 450  9945.396
 451  10156.26
 452  10460.5
 453  10040.19
 454  10627.51
 455  10808.11
 456  10687.88
 457  10317.53
 458  10141.77
 459  10220.17
 460  10526.82
 461  10384.32
 462  10734.97
 463  10824.02
 464  10397.43
 465  10343.81
 466  10461.02
 467  10862.75
 468  10197.39
 469  9957.943
 470  9490.171
 471  9725.292
 472  9973.24
 473  9955.476
 474  9936.021
 475  9670.356
 476  9097.48
 477  8749.819
 478  9405.192
 479  9450.013
 480  9981.974
 481  9982.691
 482  10058.64
 483  10033.19
 484  9628.651
 485  9637.958
 486  9760.701
 487  9841.105
 488  9726.454
 489  9524.896
 490  9554.236
 491  9753.005
 492  9841.7
 493  9603.711
 494  9737.396
 495  9969.434
 496  9928.742
 497  9876.056
 498  9775.926
 499  9818.613
 500  9654.931
 501  10038.9
 502  10076.03
 503  10286.14
 504  9722.938
 505  10076.26
 506  10416.9
 507  10108.08
 508  10371.74
 509  10553.88
 510  10230.36
 511  10232.76
