# Input file       =  1205684143.112546_cleaned.dat
# Candidate        =  PSR_0332+5434
# Telescope        =  AR
# Epoch_topo       =  58198.677802228543
# Epoch_bary       =  N/A
# T_sample         =  0.002
# Data Folded      =  7340032
# Data Avg         =  1.2926643120154  
# Data StdDev      =  10.3440900995246 
# Profile Bins     =  1024
# Profile Avg      =  9265.73297443541 
# Profile StdDev   =  875.772478162802 
# Reduced chi-sqr  =  1.379
# Prob(Noise)      <  7.49e-15   (~7.7 sigma)
# P_topo (ms)      =  714.57534761716   +/- 0.000678
# P'_topo (s/s)    =  -0                +/- 3.58e-10
# P''_topo (s/s^2) =  0                 +/- 1.58e-13
# P_bary (ms)      =  N/A
# P'_bary (s/s)    =  N/A
# P''_bary (s/s^2) =  N/A
# P_orb (s)        =  N/A
# asin(i)/c (s)    =  N/A
# eccentricity     =  N/A
# w (rad)          =  N/A
# T_peri           =  N/A
######################################################
   0  8982.135
   1  8951.145
   2  9061.021
   3  9378.01
   4  9350.008
   5  9461.924
   6  9389.415
   7  9434.842
   8  9459.132
   9  9333.293
  10  9182.218
  11  9120.401
  12  9182.211
  13  9135.037
  14  9177.454
  15  9213.04
  16  9466.351
  17  9584.04
  18  9653.282
  19  9552.661
  20  9368.977
  21  9244.975
  22  9217.206
  23  9126.919
  24  9398.914
  25  9433.147
  26  9543.547
  27  9444.298
  28  9438.397
  29  9340.469
  30  9518.154
  31  9593.289
  32  9452.128
  33  9248.885
  34  9150.687
  35  9159.126
  36  9176.788
  37  9189.938
  38  9189.24
  39  9154.595
  40  9143.418
  41  9343.896
  42  9286.866
  43  9247.892
  44  9192.69
  45  9210.594
  46  9255.185
  47  9200.277
  48  9199.312
  49  9149.909
  50  9273.768
  51  9213.199
  52  9088.167
  53  8926.151
  54  9036.822
  55  9367.081
  56  9410.909
  57  9429.669
  58  9416.727
  59  9419.093
  60  9323.299
  61  9321.271
  62  9311.688
  63  9491.685
  64  9586.382
  65  9644.58
  66  9609.61
  67  9683.191
  68  9671.216
  69  9621.852
  70  9678.208
  71  9625.369
  72  9667.93
  73  9731.583
  74  9938.592
  75  9881.192
  76  9736.896
  77  9665.062
  78  9563.919
  79  9578.459
  80  9569.714
  81  9542.589
  82  9373.108
  83  9327.451
  84  9386.703
  85  9499.703
  86  9340.952
  87  9250.078
  88  9221.77
  89  9268.224
  90  9209.664
  91  9302.745
  92  9322.068
  93  9351.286
  94  9176.215
  95  9211.208
  96  9269.995
  97  9311.998
  98  9280.287
  99  9361.304
 100  9449.836
 101  9455.896
 102  9479.885
 103  9353.583
 104  9220.394
 105  9261.868
 106  9286.773
 107  9259.358
 108  9295.36
 109  9347.124
 110  9363.356
 111  9373.041
 112  9290.938
 113  9262.423
 114  9297.41
 115  9293.001
 116  9130.587
 117  9011.794
 118  9012.829
 119  9077.458
 120  9254.931
 121  9391.975
 122  9401.391
 123  9472.707
 124  9412.714
 125  9469.224
 126  9568.035
 127  9595.553
 128  9566.065
 129  9436.551
 130  9472.707
 131  9465.129
 132  9527.484
 133  9670.52
 134  9726.422
 135  9610.979
 136  9569.107
 137  9717.424
 138  9968.482
 139  10070.65
 140  10025.51
 141  10077.67
 142  9978.345
 143  9961.488
 144  10024.17
 145  10091.58
 146  10004.29
 147  9984.039
 148  9934.835
 149  9876.716
 150  9882.098
 151  9842.368
 152  9863.169
 153  9754.525
 154  9780.33
 155  9750.021
 156  9751.176
 157  9675.01
 158  9616.4
 159  9584.379
 160  9555.146
 161  9529.973
 162  9520.767
 163  9534.788
 164  9637.886
 165  9728.228
 166  9659.766
 167  9556.51
 168  9589.755
 169  9747.326
 170  9731.61
 171  9749.685
 172  9780.126
 173  9781.397
 174  9626.575
 175  9492.488
 176  9567.123
 177  9542.184
 178  9541.642
 179  9484.586
 180  9438.562
 181  9430.43
 182  9534.79
 183  9707.01
 184  9649.33
 185  9585.623
 186  9644.548
 187  9637.362
 188  9729.039
 189  9762.853
 190  9837.658
 191  9779.711
 192  9689.296
 193  9633.527
 194  9642.019
 195  9757.746
 196  9719.76
 197  9746.208
 198  9738.7
 199  9821.142
 200  9708.849
 201  9657.467
 202  9477.55
 203  9401.172
 204  9353.244
 205  9381.563
 206  9335.285
 207  9083.922
 208  8905.626
 209  8936.103
 210  8954.889
 211  9128.558
 212  9377.146
 213  9424.232
 214  9273.481
 215  9128.746
 216  9292.509
 217  9235.575
 218  9272.04
 219  9181.342
 220  9142.096
 221  9008.749
 222  8834.764
 223  8878.675
 224  8862.596
 225  8927.707
 226  8921.907
 227  9070.213
 228  8994.495
 229  8957.602
 230  9036.803
 231  9013.387
 232  8979.559
 233  8832.225
 234  8773.668
 235  8656.006
 236  8612.921
 237  8609.04
 238  8613.201
 239  8622.335
 240  8607.913
 241  8596.709
 242  8638.131
 243  8647.553
 244  8791.138
 245  8832.56
 246  8890.451
 247  8911.973
 248  8892.606
 249  8731.284
 250  8643.419
 251  8653.166
 252  8566.816
 253  8491.186
 254  8486.376
 255  8511.748
 256  8611.964
 257  8708.741
 258  8914.758
 259  8913.756
 260  8853.06
 261  8719.099
 262  8783.507
 263  8843.77
 264  8988.662
 265  8980.697
 266  9082.319
 267  8860.015
 268  8813.143
 269  8883.436
 270  9041.094
 271  9254.079
 272  9181.331
 273  8953.903
 274  8698.066
 275  8626.61
 276  8725.243
 277  8699.159
 278  8666.18
 279  8668.518
 280  8619.481
 281  8453.906
 282  8395.052
 283  8486.732
 284  8558.047
 285  8621.196
 286  8833.106
 287  8858.335
 288  8889.693
 289  8749.995
 290  8561.018
 291  8398.888
 292  8295.121
 293  8295.428
 294  8326.618
 295  8416.345
 296  8549.186
 297  8599.372
 298  8600.266
 299  8672.277
 300  8797.405
 301  8807.454
 302  8706.646
 303  8591.978
 304  8642.648
 305  8687.29
 306  8770.712
 307  8763.303
 308  8732.719
 309  8769.638
 310  8913.323
 311  8985.865
 312  8848.301
 313  8654.842
 314  8692.694
 315  8658.184
 316  8664.098
 317  8628.458
 318  8601.239
 319  8610.278
 320  8649.027
 321  8581.164
 322  8573.7
 323  8658.629
 324  8838.032
 325  8740.879
 326  8693.568
 327  8621.698
 328  8763.041
 329  8787.01
 330  8718.861
 331  8926.575
 332  8834.187
 333  8860.084
 334  8705.521
 335  8618.247
 336  8512.688
 337  8702.78
 338  8853.908
 339  8890.468
 340  8782.04
 341  8768.486
 342  8808.873
 343  8930.691
 344  8883.322
 345  8980.431
 346  9169.63
 347  9137.288
 348  9094.574
 349  9008.894
 350  8933.364
 351  8755.118
 352  8757.069
 353  8862.022
 354  8743.747
 355  8560.813
 356  8601.812
 357  8690.9
 358  8734.368
 359  8732.608
 360  8650.264
 361  8665.804
 362  8571.062
 363  8462.25
 364  8449.294
 365  8493.562
 366  8438.198
 367  8501.989
 368  8492.578
 369  8365.959
 370  8316.44
 371  8320.386
 372  8298.29
 373  8330.542
 374  8363.215
 375  8298.66
 376  8310.34
 377  8339.291
 378  8301.519
 379  8361.388
 380  8444.602
 381  8471.338
 382  8392.434
 383  8361.459
 384  8331.687
 385  8252.354
 386  8209.818
 387  8262.957
 388  8356.759
 389  8349.775
 390  8287.508
 391  8211.001
 392  8186.33
 393  8220.142
 394  8404.754
 395  8511.576
 396  8492.39
 397  8351.664
 398  8408.788
 399  8265.886
 400  8188.811
 401  8037.657
 402  8081.05
 403  8123.072
 404  8145.926
 405  8193.31
 406  8227.694
 407  8251.031
 408  8184.355
 409  8265.088
 410  8185.178
 411  8088.948
 412  8042.615
 413  8056.823
 414  7908.204
 415  7850.54
 416  7906.945
 417  7728.957
 418  7648.832
 419  7678.708
 420  7792.362
 421  7847.49
 422  7861.474
 423  7888.264
 424  7900.974
 425  7887.711
 426  7966.988
 427  8204.013
 428  8173.938
 429  8027.688
 430  7957.502
 431  7790.187
 432  7631.363
 433  7489.657
 434  7674.913
 435  7834.498
 436  8037.298
 437  8203.249
 438  8171.716
 439  8094.882
 440  8151.281
 441  8188.348
 442  8241.617
 443  8286.257
 444  8316.222
 445  8290.182
 446  8396.076
 447  8355.213
 448  8427.899
 449  8450.425
 450  8478.764
 451  8415.961
 452  8386.219
 453  8501.159
 454  8615.853
 455  8629.145
 456  8618.487
 457  8725.115
 458  8653.73
 459  8644.885
 460  8637.962
 461  8760.852
 462  8914.479
 463  8866.053
 464  8747.955
 465  8758.46
 466  8892.021
 467  9058.261
 468  9270.907
 469  9210.687
 470  9333.189
 471  9365.201
 472  9420.853
 473  9186.515
 474  8987.806
 475  8918.245
 476  9325.861
 477  9477.471
 478  9320.58
 479  9210.727
 480  9311.651
 481  9408.396
 482  9473.511
 483  9407.244
 484  9515.651
 485  9567.245
 486  9728.396
 487  9796.054
 488  9899.495
 489  9747.931
 490  9754.764
 491  9606.021
 492  9534.037
 493  9468.502
 494  9581.561
 495  9572.849
 496  9612.504
 497  9710.706
 498  9899.982
 499  10076.89
 500  10035.69
 501  10128.96
 502  9923.46
 503  9700.138
 504  9749.344
 505  9690.578
 506  9673.027
 507  9740.046
 508  9930.601
 509  10039.78
 510  9946.506
 511  9920.27
 512  9934.854
 513  9877.224
 514  9882.783
 515  9814.151
 516  9817.588
 517  9790.77
 518  9836.753
 519  9685.316
 520  9457.033
 521  9398.804
 522  9344.653
 523  9422.838
 524  9415.435
 525  9495.266
 526  9537.709
 527  9584.815
 528  9453.203
 529  9575.926
 530  9587.209
 531  9569.696
 532  9564.862
 533  9358.315
 534  9443.771
 535  9483.542
 536  9577.002
 537  9696.238
 538  9874.068
 539  9936.236
 540  9885.654
 541  9873.956
 542  9893.102
 543  9950.581
 544  9947.864
 545  9995.631
 546  9998.533
 547  9991.685
 548  9870.041
 549  9904.278
 550  10063.52
 551  10049.56
 552  9960.378
 553  10004.14
 554  9954.928
 555  9918.275
 556  9832.31
 557  9716.019
 558  9670.704
 559  9777.399
 560  9766.558
 561  9764.79
 562  9865.093
 563  9748.883
 564  9772.692
 565  9684.838
 566  9959.271
 567  10099.79
 568  10200.29
 569  10119.39
 570  9920.059
 571  9808.495
 572  9660.419
 573  9665.432
 574  9790.255
 575  9940.354
 576  9750.452
 577  9706.856
 578  9768.999
 579  9896.808
 580  10029.18
 581  10107.94
 582  10154.06
 583  9984.95
 584  9844.319
 585  9633.958
 586  9587.067
 587  9516.063
 588  9722.478
 589  9770.688
 590  9761.639
 591  9738.482
 592  9826.998
 593  9880.324
 594  9843.529
 595  9838.708
 596  10021.33
 597  10121
 598  10049.91
 599  9953.182
 600  10037.94
 601  10171.41
 602  10296.36
 603  10628.2
 604  10877.84
 605  10983.66
 606  10969.01
 607  10940.89
 608  11015.18
 609  10973.65
 610  10938.14
 611  10701.25
 612  10572.84
 613  10439.33
 614  10422.18
 615  10238.11
 616  10032.56
 617  9949.552
 618  10045.73
 619  9957.469
 620  9990.645
 621  10128.09
 622  10072.16
 623  10010.61
 624  10048.98
 625  10180.2
 626  10159.74
 627  10067.17
 628  10076
 629  10073.8
 630  10138.02
 631  10105.78
 632  9945.999
 633  9924.18
 634  9863.423
 635  9981.847
 636  9893.817
 637  9912.385
 638  9969.446
 639  10015.12
 640  9985.865
 641  9992.103
 642  10216.53
 643  10365.77
 644  10492
 645  10474.5
 646  10138.13
 647  10024.22
 648  9970.593
 649  9994.193
 650  9856.957
 651  9763.405
 652  9657.729
 653  9783.593
 654  9911.395
 655  9977.456
 656  10050.92
 657  10108.09
 658  10318.92
 659  10451.22
 660  10370.97
 661  10316.82
 662  10282.14
 663  10264.9
 664  10007.93
 665  9973.567
 666  9960.012
 667  9984.41
 668  9902.085
 669  9911.763
 670  9992.285
 671  10147.87
 672  10153.34
 673  10071.4
 674  9957.459
 675  9922.771
 676  9853.455
 677  9796.685
 678  9754.872
 679  9682.599
 680  9771.794
 681  9668.861
 682  9656.306
 683  9585.69
 684  9659.754
 685  9657.333
 686  9740.095
 687  9927.184
 688  10028.65
 689  10042.56
 690  9972.18
 691  9861.44
 692  9838.441
 693  9820.591
 694  9761.293
 695  9607.77
 696  9583.136
 697  9628.01
 698  9716.001
 699  9670.54
 700  9568.117
 701  9522.98
 702  9697.604
 703  9642.991
 704  9681.847
 705  9784.967
 706  9866.422
 707  9920.432
 708  9951.664
 709  9855.452
 710  9802.931
 711  9795.064
 712  9842.398
 713  9980.77
 714  9802.348
 715  9693.192
 716  9663.277
 717  9804.223
 718  9920.616
 719  9861.991
 720  9799.301
 721  9795.448
 722  9906.589
 723  9899.637
 724  9738.795
 725  9732.833
 726  9871.803
 727  9918.273
 728  9808.436
 729  9746.059
 730  9609.525
 731  9457.895
 732  9496.255
 733  9685.407
 734  9742.953
 735  9566.302
 736  9426.605
 737  9482.839
 738  9697.322
 739  9705.197
 740  9797.099
 741  9686.469
 742  9552.972
 743  9571.888
 744  9475.641
 745  9452.909
 746  9360.371
 747  9355.652
 748  9348.773
 749  9257.706
 750  9355.634
 751  9366.005
 752  9385.954
 753  9300.387
 754  9368.656
 755  9556.314
 756  9640.979
 757  9545.714
 758  9531.793
 759  9384.873
 760  9476.744
 761  9417.03
 762  9437.827
 763  9525.481
 764  9593.302
 765  9529.661
 766  9292.429
 767  9329.486
 768  9357.911
 769  9485.031
 770  9573.275
 771  9650.551
 772  9537.362
 773  9359.655
 774  9257.229
 775  9310.515
 776  9315.463
 777  9439.641
 778  9401.715
 779  9393.66
 780  9346.733
 781  9290.329
 782  9311.232
 783  9249.333
 784  9298.583
 785  9212.742
 786  9255.285
 787  9349.625
 788  9317.848
 789  9450.963
 790  9503.711
 791  9704.735
 792  9728.858
 793  9703.919
 794  9717.633
 795  9747.219
 796  9843.487
 797  9997.044
 798  9942.238
 799  9695.444
 800  9621.661
 801  9544.514
 802  9473.42
 803  9503.197
 804  9558.434
 805  9681.461
 806  9889.523
 807  10012.43
 808  9928.173
 809  9899.175
 810  9839.892
 811  9872.96
 812  9846.918
 813  9679.062
 814  9666.11
 815  9625.824
 816  9715.328
 817  9686.494
 818  9596.31
 819  9355.787
 820  9246.866
 821  9249.133
 822  9140.534
 823  9148.233
 824  9079.305
 825  9085.853
 826  9112.987
 827  9184.871
 828  9263.132
 829  9334.28
 830  9296.168
 831  9237.037
 832  9063.105
 833  9035.154
 834  9065.659
 835  9012.209
 836  8945.877
 837  8667.085
 838  8661.174
 839  8700.834
 840  8648.481
 841  8790.842
 842  8826.201
 843  8980.058
 844  8978.501
 845  8921.12
 846  8819.442
 847  8804.138
 848  8893.716
 849  8833.283
 850  8816.531
 851  8666.646
 852  8415.773
 853  8541.324
 854  8597.333
 855  8513.126
 856  8530.329
 857  8595.432
 858  8595.138
 859  8533.813
 860  8508.732
 861  8667.066
 862  8823.171
 863  8820.844
 864  8776.163
 865  8903.444
 866  9027.757
 867  8945.229
 868  8850.025
 869  8815.651
 870  8681.758
 871  8697.323
 872  8578.423
 873  8673.299
 874  8871.784
 875  8901.195
 876  8914.389
 877  8752.099
 878  8753.428
 879  8612.019
 880  8615.753
 881  8491.36
 882  8496.013
 883  8703.56
 884  8872.641
 885  8954.45
 886  8770.146
 887  8900.634
 888  9041.497
 889  9237.235
 890  9154.959
 891  9126.336
 892  8951.19
 893  8755.892
 894  8782.479
 895  8959.378
 896  9075.138
 897  9028.41
 898  8890.428
 899  8856.598
 900  8893.784
 901  9008.371
 902  9014.514
 903  8920.27
 904  8990.882
 905  9013.581
 906  9191.446
 907  9147.275
 908  9088.546
 909  9076.868
 910  8996.182
 911  8994.545
 912  8968.094
 913  9093.661
 914  9090.075
 915  9067.023
 916  8970.269
 917  8881.669
 918  8785.062
 919  8956.47
 920  8973.917
 921  9103.519
 922  9048.486
 923  8969.77
 924  8973.809
 925  8964.763
 926  8929.404
 927  8840.15
 928  8842.234
 929  8897.512
 930  9025.966
 931  9038.264
 932  8921.92
 933  8909.801
 934  9001.028
 935  8953.922
 936  9057.673
 937  9154.456
 938  9182.163
 939  9102.892
 940  9010.08
 941  8894.88
 942  8917.11
 943  8914.249
 944  9034.78
 945  9148.915
 946  9347.033
 947  9220.559
 948  9187.732
 949  9359.436
 950  9433.975
 951  9262.186
 952  9084.636
 953  8977.013
 954  9102.174
 955  9169.35
 956  9336.641
 957  9309.932
 958  9363.297
 959  9384.969
 960  9503.807
 961  9379.472
 962  9376.557
 963  9354.954
 964  9466.474
 965  9493.734
 966  9510.577
 967  9398.054
 968  9152.861
 969  9259.537
 970  9426.405
 971  9440.82
 972  9372.146
 973  9515.448
 974  9460.187
 975  9397.611
 976  9272.862
 977  9262.238
 978  9374.445
 979  9422.879
 980  9570.94
 981  9531.558
 982  9589.611
 983  9519.169
 984  9444.548
 985  9249.921
 986  9135.941
 987  9122.868
 988  9104.838
 989  9079.394
 990  8976.286
 991  8912.104
 992  8861.632
 993  8815.357
 994  8939.256
 995  9003.11
 996  9115.037
 997  9033.764
 998  9083.253
 999  9147.679
1000  9170.301
1001  9230.347
1002  9270.332
1003  9128.339
1004  9036.334
1005  9038.654
1006  8951.358
1007  8941.569
1008  8949.974
1009  9025.102
1010  9097.557
1011  9085.797
1012  9177.404
1013  9199.747
1014  9243.197
1015  9242.889
1016  9225.687
1017  9188.951
1018  9167.221
1019  9085.11
1020  9104.174
1021  8955.649
1022  9050.771
1023  9083.962
