# Input file       =  1205253810.115375_cleaned.dat
# Candidate        =  PSR_0332+5434
# Telescope        =  AR
# Epoch_topo       =  58193.697096242766
# Epoch_bary       =  N/A
# T_sample         =  0.002
# Data Folded      =  7340032
# Data Avg         =  0.0313314512344992
# Data StdDev      =  2.75555069676922 
# Profile Bins     =  1024
# Profile Avg      =  224.558984242416 
# Profile StdDev   =  233.296059797827 
# Reduced chi-sqr  =  1.105
# Prob(Noise)      <  0.0106   (~2.3 sigma)
# P_topo (ms)      =  714.577364451287  +/- 0.00018
# P'_topo (s/s)    =  -0                +/- 9.51e-11
# P''_topo (s/s^2) =  0                 +/- 4.2e-14
# P_bary (ms)      =  N/A
# P'_bary (s/s)    =  N/A
# P''_bary (s/s^2) =  N/A
# P_orb (s)        =  N/A
# asin(i)/c (s)    =  N/A
# eccentricity     =  N/A
# w (rad)          =  N/A
# T_peri           =  N/A
######################################################
   0  462.9015
   1  339.4003
   2  292.9471
   3  184.1401
   4  136.1693
   5  128.4255
   6  180.7822
   7  153.5098
   8  137.7484
   9  223.7039
  10  287.0998
  11  324.8805
  12  193.5759
  13  237.3488
  14  199.0045
  15  295.0858
  16  275.505
  17  326.0293
  18  263.6538
  19  238.449
  20  246.9825
  21  280.2451
  22  275.9806
  23  299.6868
  24  232.1156
  25  142.5939
  26  30.30379
  27  11.1401
  28  -12.57049
  29  -30.64867
  30  154.5929
  31  378.4392
  32  608.6349
  33  648.9317
  34  559.0364
  35  388.46
  36  322.7886
  37  272.6212
  38  251.1281
  39  201.7736
  40  162.4878
  41  81.41587
  42  94.89234
  43  278.5122
  44  397.3716
  45  457.662
  46  348.2984
  47  293.1087
  48  216.6569
  49  263.6724
  50  307.6415
  51  342.526
  52  343.8516
  53  385.2073
  54  408.7459
  55  360.251
  56  251.5907
  57  160.3182
  58  248.6091
  59  347.4821
  60  387.1566
  61  290.6139
  62  253.5203
  63  236.2297
  64  269.4973
  65  248.6933
  66  254.3316
  67  250.1562
  68  143.1597
  69  144.784
  70  283.0373
  71  565.3837
  72  529.3431
  73  412.0888
  74  385.6265
  75  438.2206
  76  405.3066
  77  281.9463
  78  222.3415
  79  200.9305
  80  72.23142
  81  81.57193
  82  54.43791
  83  47.50349
  84  -21.75041
  85  135.2828
  86  159.4914
  87  73.65707
  88  -1.50435
  89  106.1974
  90  214.0549
  91  242.042
  92  223.3356
  93  136.8386
  94  121.0258
  95  168.1329
  96  211.9195
  97  267.988
  98  356.9098
  99  281.3466
 100  145.5869
 101  65.93678
 102  131.2581
 103  192.5164
 104  206.7419
 105  216.9998
 106  140.3528
 107  143.6846
 108  152.9538
 109  142.8334
 110  76.89006
 111  96.40311
 112  120.9794
 113  253.2094
 114  262.9516
 115  337.6516
 116  280.8826
 117  237.8924
 118  212.8766
 119  251.1728
 120  297.8265
 121  308.3692
 122  227.4089
 123  142.6048
 124  -24.10807
 125  -19.06215
 126  115.8819
 127  248.7068
 128  298.9086
 129  347.855
 130  362.7386
 131  415.2159
 132  255.349
 133  195.5564
 134  141.5401
 135  167.5312
 136  231.3179
 137  249.759
 138  339.0879
 139  352.2139
 140  373.0731
 141  345.1092
 142  287.3279
 143  264.0714
 144  295.648
 145  271.8157
 146  275.7214
 147  224.3857
 148  269.1341
 149  287.1524
 150  272.3213
 151  182.2414
 152  35.83238
 153  86.43619
 154  137.3802
 155  195.559
 156  180.3701
 157  211.3354
 158  285.6479
 159  185.6123
 160  44.99265
 161  -27.94747
 162  -40.06394
 163  40.55758
 164  83.09399
 165  175.8465
 166  109.4468
 167  138.5052
 168  195.4634
 169  293.2745
 170  227.8542
 171  142.3388
 172  121.7905
 173  70.41723
 174  83.88669
 175  255.0786
 176  379.3791
 177  387.3238
 178  299.2215
 179  291.2014
 180  208.1718
 181  218.4313
 182  208.3899
 183  272.5683
 184  149.7823
 185  60.35489
 186  -14.53419
 187  113.4776
 188  161.9937
 189  171.4525
 190  199.028
 191  291.4082
 192  339.1748
 193  401.6895
 194  315.852
 195  309.6208
 196  227.833
 197  217.7981
 198  218.3725
 199  130.3628
 200  193.9275
 201  292.4569
 202  371.3457
 203  377.3026
 204  366.3582
 205  440.8619
 206  391.826
 207  358.5357
 208  260.3299
 209  239.5345
 210  132.2303
 211  140.3246
 212  38.79791
 213  27.27635
 214  -122.2701
 215  7.122956
 216  117.8422
 217  262.2175
 218  298.0866
 219  380.3824
 220  350.5081
 221  281.9068
 222  120.3259
 223  54.22272
 224  37.74557
 225  147.5861
 226  205.5159
 227  179.2603
 228  206.2927
 229  268.6457
 230  237.3408
 231  26.94002
 232  -15.81962
 233  -4.958669
 234  40.34587
 235  76.7205
 236  74.34761
 237  166.7931
 238  301.3642
 239  390.1952
 240  341.8358
 241  239.8982
 242  202.4124
 243  138.3128
 244  145.3767
 245  201.2859
 246  288.4682
 247  278.5845
 248  269.9426
 249  194.6791
 250  137.7212
 251  32.69125
 252  46.42966
 253  125.4886
 254  172.2061
 255  209.1575
 256  91.41762
 257  -11.79826
 258  -58.96474
 259  -20.4132
 260  65.079
 261  257.3628
 262  356.3517
 263  374.8171
 264  214.9064
 265  172.8212
 266  174.6609
 267  152.7326
 268  186.1332
 269  196.3045
 270  275.0344
 271  298.8753
 272  232.2319
 273  198.5082
 274  227.1707
 275  301.9228
 276  196.5318
 277  229.5717
 278  207.5864
 279  238.0238
 280  72.93483
 281  51.48526
 282  30.67794
 283  -1.621729
 284  -111.1972
 285  4.866849
 286  93.44942
 287  164.4465
 288  252.6187
 289  437.9291
 290  442.1038
 291  269.7536
 292  81.51555
 293  191.7833
 294  344.1881
 295  408.6415
 296  321.0612
 297  224.2258
 298  97.82915
 299  53.03109
 300  49.52863
 301  217.5319
 302  245.6132
 303  323.6943
 304  244.8164
 305  255.062
 306  205.9887
 307  277.179
 308  284.655
 309  253.0301
 310  145.5816
 311  105.192
 312  133.0209
 313  219.4507
 314  173.1346
 315  146.1706
 316  78.40707
 317  210.5126
 318  330.0369
 319  398.6481
 320  302.2166
 321  124.2601
 322  69.36356
 323  12.2607
 324  69.18025
 325  149.4234
 326  268.6639
 327  192.2073
 328  206.1824
 329  259.0972
 330  378.6793
 331  383.9466
 332  312.8972
 333  312.0469
 334  231.494
 335  87.23019
 336  28.17044
 337  68.99839
 338  118.3389
 339  170.9759
 340  317.5069
 341  482.1793
 342  440.4535
 343  283.4019
 344  149.884
 345  125.4461
 346  252.6008
 347  352.3299
 348  334.1951
 349  417.5968
 350  392.1275
 351  387.0333
 352  262.0389
 353  247.5482
 354  282.4265
 355  264.0449
 356  249.0475
 357  192.8406
 358  241.62
 359  157.1505
 360  130.4031
 361  178.6454
 362  238.3847
 363  270.2054
 364  190.3399
 365  120.5778
 366  70.2383
 367  23.31033
 368  92.63696
 369  43.01786
 370  111.2168
 371  148.0145
 372  299.1827
 373  285.7504
 374  309.5004
 375  332.463
 376  373.6369
 377  367.1553
 378  289.3574
 379  323.0828
 380  269.3526
 381  296.949
 382  238.6571
 383  289.6044
 384  306.0056
 385  323.3459
 386  291.479
 387  147.3009
 388  76.73813
 389  158.1433
 390  301.4614
 391  385.0132
 392  206.8068
 393  138.7102
 394  97.67326
 395  295.9446
 396  346.1882
 397  324.1159
 398  209.7676
 399  142.4407
 400  104.0267
 401  135.023
 402  108.133
 403  84.6422
 404  170.6209
 405  193.5907
 406  256.4068
 407  246.1778
 408  332.4077
 409  290.637
 410  126.3508
 411  126.6101
 412  180.4416
 413  190.0437
 414  166.8971
 415  122.1796
 416  218.3834
 417  282.7329
 418  307.265
 419  191.5714
 420  103.1879
 421  130.4527
 422  281.335
 423  278.2969
 424  153.5285
 425  131.8106
 426  200.9782
 427  255.5545
 428  157.5783
 429  107.7692
 430  226.4307
 431  237.0947
 432  290.9818
 433  229.4477
 434  186.2778
 435  92.38423
 436  140.7364
 437  136.5309
 438  165.5534
 439  144.3
 440  313.7119
 441  263.1277
 442  154.7149
 443  73.59451
 444  166.3036
 445  229.4429
 446  220.2493
 447  238.2139
 448  200.2715
 449  139.9075
 450  91.88836
 451  166.9018
 452  113.3265
 453  -20.52406
 454  -121.1179
 455  -32.13226
 456  92.67982
 457  90.36405
 458  99.75069
 459  61.12955
 460  93.27225
 461  102.5324
 462  143.9847
 463  128.8624
 464  126.044
 465  133.0057
 466  207.7742
 467  188.6185
 468  228.934
 469  230.8313
 470  242.3223
 471  165.8998
 472  189.5881
 473  266.5952
 474  286.752
 475  219.3362
 476  199.272
 477  210.0441
 478  265.3839
 479  300.819
 480  262.1311
 481  260.5882
 482  302.7151
 483  329.9756
 484  198.0565
 485  205.3613
 486  302.3303
 487  351.4365
 488  248.6802
 489  121.3594
 490  160.9983
 491  177.195
 492  208.9764
 493  189.2116
 494  160.194
 495  76.62833
 496  66.95132
 497  160.3345
 498  380.1332
 499  453.6632
 500  385.7025
 501  216.9157
 502  132.5402
 503  194.0682
 504  177.396
 505  168.9884
 506  155.4423
 507  327.3705
 508  285.7061
 509  273.009
 510  104.5152
 511  186.7903
 512  192.7568
 513  216.615
 514  149.132
 515  162.3499
 516  129.4625
 517  -54.08596
 518  19.46074
 519  161.1337
 520  201.0234
 521  125.0221
 522  203.4436
 523  258.8005
 524  392.3735
 525  435.9749
 526  455.3113
 527  235.8548
 528  98.53124
 529  140.9264
 530  210.3789
 531  264.2068
 532  196.7297
 533  236.6589
 534  274.9863
 535  309.349
 536  233.2606
 537  225.2629
 538  225.2306
 539  278.1378
 540  275.8345
 541  333.6783
 542  241.4797
 543  211.9404
 544  255.8803
 545  286.2949
 546  277.4246
 547  305.3591
 548  377.5966
 549  367.3991
 550  359.8081
 551  288.6788
 552  350.4982
 553  210.3913
 554  249.4182
 555  231.9616
 556  299.9498
 557  284.1044
 558  194.0194
 559  197.0963
 560  238.3643
 561  257.6652
 562  193.4227
 563  170.4635
 564  285.8747
 565  447.5008
 566  433.4572
 567  416.9121
 568  359.2339
 569  323.4316
 570  355.1594
 571  357.7944
 572  274.3104
 573  156.5542
 574  66.73059
 575  129.4403
 576  128.9585
 577  134.6555
 578  227.6629
 579  233.2268
 580  336.1985
 581  347.5037
 582  316.6486
 583  247.0447
 584  186.8326
 585  192.7484
 586  111.5591
 587  119.3089
 588  189.1636
 589  251.094
 590  216.1352
 591  278.8421
 592  316.4244
 593  299.2697
 594  252.6062
 595  253.6819
 596  224.0829
 597  240.3577
 598  247.3858
 599  377.0403
 600  483.881
 601  640.5692
 602  854.3953
 603  937.4866
 604  1002.925
 605  948.9523
 606  1026.955
 607  1139.457
 608  1172.643
 609  1112.325
 610  940.2711
 611  672.5242
 612  547.1234
 613  453.1908
 614  517.3832
 615  459.7592
 616  385.6388
 617  283.8211
 618  297.5192
 619  350.5706
 620  300.4615
 621  234.4844
 622  170.7899
 623  185.8304
 624  167.2066
 625  259.84
 626  278.305
 627  341.2938
 628  347.4095
 629  277.9727
 630  216.3047
 631  163.9702
 632  263.8836
 633  297.3047
 634  351.0376
 635  196.4654
 636  160.3147
 637  142.1329
 638  175.0957
 639  163.6892
 640  211.5894
 641  233.8244
 642  141.1613
 643  38.2309
 644  103.8092
 645  111.1527
 646  96.86162
 647  50.43491
 648  36.15197
 649  80.67685
 650  153.0663
 651  259.9314
 652  243.0866
 653  175.7364
 654  212.7688
 655  225.8174
 656  334.0274
 657  206.6899
 658  166.6855
 659  45.2877
 660  162.2144
 661  250.9929
 662  267.0007
 663  165.7475
 664  107.9971
 665  174.3231
 666  249.0301
 667  257.2364
 668  261.0179
 669  189.0307
 670  158.3275
 671  79.2402
 672  104.1889
 673  87.78897
 674  165.6401
 675  171.2456
 676  222.2434
 677  221.795
 678  293.2633
 679  249.1141
 680  284.2492
 681  292.498
 682  311.9055
 683  265.1671
 684  278.6497
 685  268.7406
 686  303.1471
 687  240.7172
 688  180.2944
 689  174.9295
 690  322.6562
 691  307.0354
 692  292.7195
 693  283.4011
 694  291.1488
 695  273.4174
 696  306.6632
 697  339.4475
 698  267.7293
 699  300.4792
 700  379.5544
 701  448.3157
 702  357.5813
 703  353.85
 704  390.788
 705  428.2406
 706  346.1577
 707  335.2244
 708  302.2927
 709  290.5608
 710  265.4194
 711  395.2078
 712  484.4328
 713  466.4326
 714  359.7865
 715  239.6319
 716  208.0799
 717  275.325
 718  308.5519
 719  269.4353
 720  186.4648
 721  154.6898
 722  184.8887
 723  67.60712
 724  39.81658
 725  91.45715
 726  189.8607
 727  311.3013
 728  333.1581
 729  400.4601
 730  287.756
 731  154.3759
 732  146.5728
 733  209.1293
 734  335.7014
 735  323.9158
 736  206.7379
 737  183.9095
 738  195.0484
 739  109.7384
 740  58.53788
 741  191.1883
 742  288.1423
 743  248.1738
 744  148.2697
 745  108.4148
 746  151.1644
 747  200.6298
 748  294.7645
 749  236.7706
 750  204.0787
 751  256.2117
 752  304.0408
 753  271.8979
 754  288.3262
 755  352.7322
 756  373.3374
 757  393.2541
 758  348.9925
 759  373.1843
 760  246.3983
 761  301.9498
 762  317.4906
 763  348.2386
 764  323.3927
 765  346.8378
 766  299.4095
 767  114.9046
 768  37.14469
 769  139.0695
 770  138.1614
 771  158.3871
 772  174.2442
 773  354.4094
 774  317.7382
 775  198.4776
 776  -4.333952
 777  26.67006
 778  59.31561
 779  171.7269
 780  146.168
 781  261.9101
 782  345.1587
 783  504.7701
 784  351.879
 785  165.4817
 786  39.65741
 787  144.6725
 788  210.2786
 789  229.8995
 790  228.1755
 791  208.2256
 792  164.1279
 793  202.5455
 794  267.8347
 795  314.6578
 796  238.2681
 797  125.4861
 798  -2.891675
 799  -51.29584
 800  45.6816
 801  208.6564
 802  267.9617
 803  148.8741
 804  68.04916
 805  91.32752
 806  129.0201
 807  102.1262
 808  -19.19277
 809  13.24399
 810  140.7657
 811  229.9654
 812  268.875
 813  236.5934
 814  241.949
 815  223.7641
 816  221.4618
 817  308.4706
 818  253.1432
 819  246.5602
 820  128.7881
 821  160.402
 822  93.98136
 823  152.5894
 824  117.3429
 825  232.9493
 826  221.0173
 827  303.9303
 828  156.3505
 829  94.77919
 830  78.32899
 831  73.3877
 832  22.66259
 833  12.91805
 834  146.5435
 835  210.2777
 836  199.2272
 837  215.5636
 838  290.839
 839  178.627
 840  14.7836
 841  -89.30383
 842  71.97488
 843  148.52
 844  206.9165
 845  185.38
 846  265.4872
 847  341.6137
 848  343.4651
 849  237.8965
 850  96.11035
 851  138.4877
 852  275.9044
 853  327.8842
 854  231.5284
 855  121.531
 856  165.9671
 857  246.7992
 858  373.0986
 859  315.545
 860  263.6555
 861  161.907
 862  170.3945
 863  73.65504
 864  156.7838
 865  408.8077
 866  592.249
 867  561.6254
 868  378.2606
 869  243.7633
 870  160.4276
 871  182.3345
 872  133.2702
 873  172.9967
 874  139.2755
 875  237.2
 876  221.4148
 877  340.327
 878  389.0001
 879  428.352
 880  324.6453
 881  266.088
 882  249.1333
 883  285.6985
 884  221.5075
 885  215.5223
 886  286.4235
 887  276.017
 888  183.0472
 889  -10.22877
 890  -63.07749
 891  -25.10308
 892  68.99555
 893  250.351
 894  378.8697
 895  438.5056
 896  385.9131
 897  267.9152
 898  208.578
 899  195.8596
 900  225.7112
 901  211.4688
 902  192.0217
 903  162.4507
 904  178.3167
 905  161.4446
 906  282.0674
 907  315.9792
 908  317.981
 909  305.6562
 910  308.6688
 911  230.5161
 912  149.0293
 913  186.1503
 914  190.979
 915  80.34558
 916  52.50251
 917  178.76
 918  359.0081
 919  315.1296
 920  292.9217
 921  233.4509
 922  343.2737
 923  310.2148
 924  294.3903
 925  170.9068
 926  193.4037
 927  163.875
 928  186.6617
 929  148.7183
 930  228.3987
 931  261.0483
 932  260.5245
 933  230.2512
 934  244.6823
 935  174.0981
 936  185.7804
 937  95.24049
 938  67.17979
 939  49.05707
 940  139.9319
 941  220.1878
 942  134.0951
 943  187.1043
 944  342.3374
 945  344.8389
 946  172.6512
 947  105.7025
 948  180.8312
 949  117.6765
 950  -35.19222
 951  6.589069
 952  248.3203
 953  348.0939
 954  262.8036
 955  181.9816
 956  93.90539
 957  97.91688
 958  182.2456
 959  325.8198
 960  253.7784
 961  324.2691
 962  300.7603
 963  323.6667
 964  127.2746
 965  116.2109
 966  147.8889
 967  260.8504
 968  238.6076
 969  260.8766
 970  155.1525
 971  139.5879
 972  72.1792
 973  6.286622
 974  -73.62732
 975  -68.34526
 976  14.84285
 977  99.76607
 978  74.60971
 979  147.1944
 980  186.6345
 981  235.1024
 982  336.0982
 983  228.7804
 984  179.7222
 985  145.0064
 986  274.5321
 987  174.8149
 988  119.9267
 989  145.0658
 990  216.4091
 991  195.6695
 992  13.72888
 993  3.912308
 994  67.5394
 995  200.7698
 996  118.2987
 997  -48.26022
 998  93.02828
 999  196.7377
1000  365.5091
1001  293.3445
1002  337.1643
1003  290.9532
1004  259.3342
1005  97.4362
1006  151.595
1007  263.4291
1008  435.7478
1009  260.6187
1010  118.1615
1011  24.40067
1012  9.215281
1013  144.4378
1014  260.373
1015  377.2589
1016  265.9986
1017  188.7824
1018  200.5607
1019  336.6657
1020  301.1185
1021  122.2804
1022  151.7623
1023  297.4217
