# Input file       =  1205999253.103225_cleaned.dat
# Candidate        =  PSR_0332+5434
# Telescope        =  AR
# Epoch_topo       =  58202.324908602139
# Epoch_bary       =  N/A
# T_sample         =  0.002
# Data Folded      =  7208960
# Data Avg         =  0.0444551905632598
# Data StdDev      =  1.00005223832342 
# Profile Bins     =  512
# Profile Avg      =  625.863776800551 
# Profile StdDev   =  118.665374349932 
# Reduced chi-sqr  =  1.607
# Prob(Noise)      <  7.79e-17   (~8.3 sigma)
# P_topo (ms)      =  714.573274040164  +/- 7.32e-05
# P'_topo (s/s)    =  -0                +/- 3.93e-11
# P''_topo (s/s^2) =  0                 +/- 1.77e-14
# P_bary (ms)      =  N/A
# P'_bary (s/s)    =  N/A
# P''_bary (s/s^2) =  N/A
# P_orb (s)        =  N/A
# asin(i)/c (s)    =  N/A
# eccentricity     =  N/A
# w (rad)          =  N/A
# T_peri           =  N/A
######################################################
   0  1389.845
   1  1363.519
   2  1086.544
   3  747.8474
   4  603.6644
   5  592.2249
   6  600.6698
   7  708.9659
   8  732.2704
   9  683.6491
  10  615.5307
  11  590.9677
  12  637.3353
  13  611.899
  14  518.2695
  15  567.4384
  16  593.9755
  17  632.1913
  18  715.6947
  19  525.7394
  20  476.2434
  21  589.3693
  22  624.9095
  23  660.4722
  24  655.8754
  25  656.0779
  26  635.6511
  27  506.2088
  28  484.7984
  29  521.2395
  30  493.295
  31  467.866
  32  585.227
  33  574.5624
  34  540.5553
  35  519.9996
  36  553.0844
  37  524.2593
  38  501.5999
  39  491.1021
  40  559.6473
  41  674.2253
  42  607.0767
  43  486.2471
  44  529.087
  45  555.7324
  46  576.7771
  47  566.6252
  48  638.9573
  49  665.7399
  50  638.6958
  51  562.4842
  52  523.6877
  53  555.2601
  54  530.538
  55  649.8253
  56  638.5256
  57  621.2585
  58  608.5766
  59  559.9352
  60  452.4189
  61  473.6921
  62  475.075
  63  531.3503
  64  598.4108
  65  672.658
  66  634.2633
  67  573.0082
  68  646.3945
  69  490.006
  70  337.6306
  71  473.9226
  72  547.1528
  73  539.3698
  74  465.9565
  75  613.4316
  76  552.6925
  77  558.7338
  78  518.0409
  79  504.0884
  80  537.6307
  81  637.8551
  82  631.2916
  83  627.1617
  84  581.147
  85  621.2725
  86  443.2391
  87  485.5722
  88  583.6297
  89  652.4327
  90  586.5058
  91  539.1011
  92  685.5375
  93  608.0569
  94  530.9642
  95  569.7681
  96  546.6902
  97  536.9225
  98  651.0592
  99  662.2052
 100  688.2977
 101  662.2859
 102  586.9497
 103  507.725
 104  522.5439
 105  504.1937
 106  529.8778
 107  598.1099
 108  664.1559
 109  610.2311
 110  647.5212
 111  536.1832
 112  485.3672
 113  425.8381
 114  395.8169
 115  517.7587
 116  549.7805
 117  583.3643
 118  450.3338
 119  535.7838
 120  530.1693
 121  590.7488
 122  666.3266
 123  605.1245
 124  618.2201
 125  608.159
 126  624.7762
 127  681.7807
 128  552.877
 129  538.6856
 130  460.8803
 131  554.4343
 132  672.7298
 133  652.7863
 134  568.1125
 135  572.7701
 136  611.9326
 137  631.8452
 138  553.8019
 139  484.0786
 140  582.6251
 141  614.8693
 142  728.8765
 143  657.6382
 144  593.2357
 145  561.1543
 146  578.2062
 147  518.8907
 148  557.2294
 149  744.0863
 150  724.5636
 151  730.4917
 152  771.6732
 153  679.7426
 154  670.2348
 155  660.1353
 156  724.2462
 157  645.7647
 158  549.7379
 159  534.1245
 160  600.7964
 161  632.9089
 162  665.4104
 163  627.9698
 164  633.8804
 165  749.3359
 166  676.7019
 167  754.6932
 168  606.3375
 169  679.6527
 170  653.0775
 171  635.0724
 172  637.3564
 173  626.0518
 174  759.2737
 175  736.9196
 176  698.9326
 177  635.9017
 178  601.3235
 179  657.5804
 180  609.6576
 181  589.0772
 182  763.6445
 183  741.9318
 184  627.8909
 185  732.5894
 186  647.0291
 187  593.7245
 188  537.0735
 189  601.0739
 190  624.2726
 191  721.1282
 192  618.593
 193  506.3987
 194  594.7382
 195  545.1234
 196  579.0916
 197  574.4598
 198  642.7583
 199  694.5654
 200  656.8281
 201  530.0961
 202  621.8391
 203  656.3088
 204  528.8471
 205  487.2223
 206  564.9036
 207  704.2369
 208  606.0084
 209  469.2987
 210  616.4684
 211  523.7972
 212  554.799
 213  629.3345
 214  699.1444
 215  670.671
 216  628.7803
 217  474.6516
 218  567.3652
 219  532.0963
 220  675.4958
 221  709.6157
 222  624.7591
 223  640.5352
 224  688.7251
 225  716.6846
 226  591.1288
 227  669.868
 228  669.8445
 229  558.7996
 230  758.0869
 231  793.9395
 232  709.0262
 233  673.1597
 234  693.3798
 235  649.9587
 236  599.2101
 237  611.7619
 238  628.1508
 239  602.3878
 240  661.4377
 241  739.5044
 242  670.0689
 243  573.1689
 244  617.3768
 245  686.5902
 246  747.7191
 247  817.1348
 248  692.5121
 249  728.0974
 250  698.4938
 251  631.3052
 252  571.5419
 253  610.69
 254  621.4218
 255  623.1606
 256  753.5067
 257  839.5757
 258  775.027
 259  730.592
 260  724.685
 261  650.6782
 262  645.0946
 263  670.0748
 264  569.9471
 265  589.1599
 266  710.9033
 267  595.6981
 268  566.0785
 269  518.432
 270  626.3534
 271  615.2818
 272  617.6678
 273  576.9612
 274  632.6606
 275  648.2108
 276  538.7513
 277  641.3761
 278  696.5581
 279  714.6024
 280  700.2123
 281  657.3234
 282  626.5405
 283  618.3277
 284  429.0839
 285  554.7363
 286  638.7538
 287  712.4033
 288  686.3882
 289  616.6793
 290  576.6855
 291  657.7404
 292  656.1886
 293  640.28
 294  743.0577
 295  791.8806
 296  635.1819
 297  526.088
 298  533.4102
 299  596.3392
 300  601.4335
 301  523.7928
 302  620.4604
 303  612.5529
 304  517.2327
 305  550.8275
 306  535.0381
 307  591.0189
 308  523.5692
 309  637.8393
 310  700.7507
 311  655.6935
 312  538.1506
 313  549.4426
 314  649.6464
 315  704.3683
 316  516.1737
 317  563.6121
 318  593.7028
 319  522.84
 320  637.3604
 321  558.1578
 322  661.2668
 323  661.3619
 324  619.4641
 325  520.3497
 326  473.7474
 327  595.3197
 328  578.5968
 329  551.2933
 330  574.299
 331  637.1758
 332  521.153
 333  347.9069
 334  593.3605
 335  598.0469
 336  559.8774
 337  579.6119
 338  637.2151
 339  658.9625
 340  631.3458
 341  524.7624
 342  591.3538
 343  494.0661
 344  446.7711
 345  532.3593
 346  631.3164
 347  672.5782
 348  698.2002
 349  660.1797
 350  540.4246
 351  499.744
 352  541.724
 353  619.5807
 354  571.3791
 355  525.9149
 356  577.2788
 357  558.5762
 358  527.3192
 359  632.4653
 360  609.9019
 361  604.0856
 362  681.513
 363  645.4462
 364  651.5134
 365  654.9661
 366  690.0309
 367  641.2817
 368  735.5591
 369  729.2044
 370  608.6753
 371  721.7316
 372  757.3288
 373  708.3969
 374  667.5302
 375  738.8463
 376  744.5891
 377  760.9739
 378  840.5934
 379  827.0421
 380  728.8591
 381  754.056
 382  697.3718
 383  624.4925
 384  738.8911
 385  683.3041
 386  633.6235
 387  697.4786
 388  745.8127
 389  824.9075
 390  725.9934
 391  592.8733
 392  631.6422
 393  663.2023
 394  737.4953
 395  659.5417
 396  619.1313
 397  654.537
 398  725.0803
 399  543.9446
 400  592.6081
 401  713.0866
 402  570.4923
 403  675.7527
 404  761.6469
 405  875.9193
 406  735.8217
 407  623.172
 408  669.4964
 409  674.3641
 410  760.0737
 411  721.986
 412  637.1941
 413  712.7307
 414  768.7812
 415  740.9625
 416  648.9527
 417  613.4956
 418  424.5617
 419  518.3415
 420  563.1047
 421  583.7937
 422  699.2238
 423  672.2586
 424  553.5958
 425  554.1284
 426  506.1992
 427  482.8472
 428  613.9277
 429  649.4375
 430  607.5807
 431  670.6844
 432  576.2794
 433  472.9267
 434  533.9671
 435  581.9512
 436  595.2632
 437  653.4957
 438  839.6494
 439  756.7241
 440  484.8184
 441  458.4052
 442  613.5261
 443  664.0542
 444  683.3229
 445  683.8265
 446  727.4835
 447  709.0535
 448  709.4468
 449  538.9302
 450  645.3413
 451  649.2072
 452  638.2579
 453  753.6714
 454  696.6686
 455  738.8389
 456  708.1349
 457  604.13
 458  591.7684
 459  621.1191
 460  618.4859
 461  589.1577
 462  677.153
 463  643.9642
 464  661.3833
 465  637.8618
 466  477.6779
 467  504.169
 468  496.6092
 469  680.2483
 470  726.5308
 471  771.2406
 472  891.7129
 473  716.9365
 474  651.5535
 475  514.7075
 476  469.3587
 477  559.8193
 478  723.9479
 479  715.1991
 480  552.6848
 481  549.3893
 482  494.3004
 483  675.6696
 484  592.7319
 485  490.9207
 486  503.5829
 487  575.6155
 488  669.6951
 489  610.4573
 490  505.1868
 491  519.7787
 492  603.2174
 493  619.1055
 494  636.1505
 495  694.0906
 496  669.7224
 497  621.7996
 498  520.6061
 499  539.1985
 500  559.5782
 501  603.3771
 502  671.9457
 503  696.9857
 504  727.7203
 505  828.545
 506  734.1174
 507  764.9417
 508  831.3059
 509  1050.54
 510  1234.063
 511  1337.192
