# Input file       =  1205513153.125172_cleaned.dat
# Candidate        =  PSR_0332+5434
# Telescope        =  AR
# Epoch_topo       =  58196.698751448748
# Epoch_bary       =  N/A
# T_sample         =  0.002
# Data Folded      =  7340032
# Data Avg         =  0.221930004663591
# Data StdDev      =  5.88656827139994 
# Profile Bins     =  1024
# Profile Avg      =  1590.78429188673 
# Profile StdDev   =  498.380663095283 
# Reduced chi-sqr  =  1.590
# Prob(Noise)      <  2.64e-30   (~11.4 sigma)
# P_topo (ms)      =  714.576229146543  +/- 0.000189
# P'_topo (s/s)    =  -0                +/- 9.96e-11
# P''_topo (s/s^2) =  0                 +/- 4.4e-14
# P_bary (ms)      =  N/A
# P'_bary (s/s)    =  N/A
# P''_bary (s/s^2) =  N/A
# P_orb (s)        =  N/A
# asin(i)/c (s)    =  N/A
# eccentricity     =  N/A
# w (rad)          =  N/A
# T_peri           =  N/A
######################################################
   0  1626.616
   1  1505.493
   2  1474.52
   3  1494.792
   4  1504.641
   5  1534.843
   6  1495.199
   7  1519.213
   8  1529.782
   9  1640.561
  10  1843.376
  11  1993.382
  12  2041.208
  13  1963.82
  14  1876.64
  15  1808.449
  16  1839.121
  17  2010.856
  18  1990.41
  19  1997.198
  20  1949.392
  21  1856.829
  22  1765.943
  23  1813.939
  24  2072.176
  25  2108.121
  26  2114.953
  27  2132.424
  28  2195.911
  29  2292.013
  30  2278.868
  31  2295.729
  32  2163.24
  33  2197.297
  34  2229.006
  35  2322.54
  36  2239.745
  37  2197.733
  38  2165.295
  39  2169.385
  40  2165.872
  41  2120.254
  42  2186.127
  43  2199.156
  44  2251.718
  45  2196.108
  46  2154.425
  47  2092.441
  48  2085.325
  49  2086.552
  50  1995.602
  51  1935.255
  52  1933.807
  53  1929.705
  54  1874.926
  55  1788.383
  56  1824.036
  57  1779.744
  58  1763.275
  59  1739.637
  60  1801.227
  61  1825.793
  62  1885.822
  63  1910.731
  64  2067.592
  65  2011.657
  66  1952.92
  67  1909.198
  68  1860.353
  69  1827.441
  70  1799.596
  71  1947.702
  72  2036.524
  73  2059.023
  74  2019.644
  75  1992.854
  76  1959.124
  77  1919.913
  78  1811.843
  79  1874.375
  80  1934.324
  81  1925.339
  82  1805.265
  83  1731.682
  84  1646.111
  85  1588.229
  86  1552.361
  87  1657.319
  88  1724.055
  89  1746.311
  90  1697.411
  91  1634.172
  92  1627.994
  93  1658.962
  94  1658.529
  95  1741.381
  96  1576.934
  97  1570.995
  98  1573.645
  99  1772.775
 100  1878.918
 101  1804.574
 102  1723.118
 103  1582.63
 104  1550.23
 105  1604.214
 106  1561.879
 107  1523.426
 108  1572.33
 109  1512.757
 110  1511.474
 111  1451.1
 112  1490.912
 113  1541.712
 114  1606.228
 115  1594.63
 116  1453.818
 117  1284.699
 118  1209.151
 119  1189.428
 120  1127.39
 121  1169.776
 122  1235.823
 123  1253.526
 124  1184.972
 125  1214.33
 126  1252.386
 127  1376.46
 128  1369.646
 129  1318.73
 130  1397.225
 131  1380.444
 132  1497.27
 133  1402.619
 134  1319.02
 135  1300.764
 136  1354.893
 137  1282.355
 138  1184.9
 139  1215.402
 140  1379.105
 141  1464.825
 142  1339.443
 143  1255.923
 144  1197.617
 145  1373.216
 146  1438.34
 147  1348.967
 148  1325.384
 149  1348.389
 150  1367.272
 151  1493.408
 152  1576.574
 153  1752.618
 154  1797.01
 155  1857.719
 156  1730.576
 157  1718.493
 158  1656.804
 159  1641.053
 160  1599.835
 161  1632.928
 162  1800.793
 163  1943.544
 164  1919.08
 165  1874.973
 166  1789.437
 167  1768.646
 168  1634.927
 169  1645.505
 170  1734.39
 171  1784.906
 172  1947.238
 173  2023.986
 174  2054.775
 175  2045.95
 176  2239.074
 177  2289.451
 178  2236.397
 179  2193.323
 180  2189.483
 181  2194.448
 182  2223.383
 183  2203.702
 184  2255.682
 185  2304.543
 186  2374.865
 187  2419.818
 188  2256.604
 189  2240.44
 190  2153.828
 191  2121.286
 192  2136.347
 193  2144.892
 194  2212.35
 195  2200.756
 196  2115.904
 197  2097.086
 198  2143.643
 199  2234.731
 200  2306.319
 201  2354.092
 202  2315.207
 203  2155.945
 204  1908.522
 205  1839.316
 206  1887.219
 207  1918.757
 208  1840.526
 209  1799.975
 210  1775.464
 211  1815.526
 212  1725.335
 213  1745.608
 214  1717.559
 215  1741.202
 216  1687.281
 217  1656.945
 218  1626.632
 219  1571.872
 220  1554.968
 221  1541.924
 222  1524.033
 223  1488.505
 224  1430.78
 225  1419.823
 226  1525.485
 227  1479.563
 228  1339.722
 229  1298.763
 230  1272.817
 231  1256.685
 232  1312.608
 233  1354.647
 234  1340.713
 235  1325.62
 236  1445.704
 237  1527.677
 238  1482.388
 239  1437.025
 240  1397.306
 241  1514.685
 242  1656.464
 243  1651.677
 244  1567.684
 245  1405.53
 246  1394.316
 247  1376.346
 248  1380.899
 249  1341.083
 250  1424.821
 251  1568.315
 252  1475.382
 253  1367.27
 254  1304.026
 255  1380.39
 256  1468.924
 257  1603.206
 258  1697.707
 259  1794.956
 260  1661.753
 261  1562.751
 262  1538.243
 263  1551.555
 264  1458.836
 265  1458.081
 266  1437.776
 267  1442.37
 268  1389.003
 269  1567.779
 270  1612.529
 271  1653.529
 272  1589.071
 273  1581.753
 274  1508.399
 275  1687.828
 276  1652.885
 277  1583.676
 278  1503.474
 279  1556.093
 280  1570.1
 281  1568.853
 282  1593.35
 283  1636.15
 284  1543.839
 285  1515.396
 286  1526.574
 287  1720.954
 288  1857.242
 289  1899.778
 290  1952.307
 291  1857.407
 292  1836.691
 293  1812.266
 294  1834.568
 295  1831.145
 296  1773.934
 297  1695.324
 298  1717.991
 299  1876.388
 300  1907.99
 301  1847.939
 302  1900.752
 303  2122.767
 304  2079.059
 305  1971.565
 306  1920.955
 307  2112.809
 308  2241.93
 309  2175.421
 310  2121.416
 311  2066.06
 312  2136.235
 313  2156.291
 314  2254.121
 315  2220.337
 316  2042.611
 317  1977.49
 318  2008.881
 319  1978.307
 320  2020.919
 321  2207.366
 322  2305.336
 323  2125.292
 324  2111.439
 325  2101.266
 326  2190.649
 327  1999.302
 328  2094.044
 329  2144.64
 330  2311.433
 331  2277.806
 332  2125.942
 333  2034.391
 334  1994.679
 335  2057.809
 336  2021.128
 337  2008.927
 338  1997.735
 339  2058.644
 340  2002.512
 341  1975.537
 342  1937.509
 343  1983.197
 344  2147.013
 345  2237.886
 346  2153.538
 347  2028.208
 348  1983.952
 349  1940.023
 350  1801.271
 351  1748.901
 352  1900.319
 353  2043.004
 354  1978.405
 355  1822.846
 356  1695.573
 357  1674.01
 358  1708.171
 359  1703.699
 360  1690.447
 361  1628.591
 362  1781.439
 363  1890.908
 364  1920.041
 365  1879.986
 366  1841.185
 367  1661.995
 368  1710.903
 369  1674.234
 370  1671.022
 371  1596.517
 372  1586.096
 373  1754.176
 374  1839.536
 375  1788.318
 376  1637.199
 377  1591.31
 378  1679.038
 379  1820.919
 380  1662.837
 381  1555.751
 382  1581.732
 383  1653.079
 384  1573.429
 385  1443.055
 386  1374.958
 387  1413.353
 388  1595.248
 389  1752.088
 390  1671.785
 391  1544.505
 392  1561.237
 393  1625.316
 394  1588.83
 395  1528.679
 396  1438.349
 397  1487.542
 398  1540.766
 399  1603.863
 400  1638.519
 401  1471.181
 402  1462.284
 403  1496.484
 404  1525.767
 405  1369.355
 406  1348.202
 407  1325.254
 408  1328.546
 409  1252.335
 410  1312.495
 411  1345.21
 412  1300.651
 413  1370.866
 414  1377.81
 415  1528.871
 416  1564.504
 417  1640.367
 418  1673.429
 419  1695.562
 420  1480.568
 421  1512.276
 422  1473.322
 423  1569.079
 424  1455.507
 425  1491.96
 426  1474.865
 427  1521.298
 428  1499.348
 429  1713.269
 430  1831.98
 431  1901.487
 432  1939.252
 433  1923.947
 434  1768.179
 435  1692.868
 436  1883.872
 437  1984.556
 438  1807.081
 439  1813.332
 440  1829.27
 441  1961.997
 442  1837.452
 443  1832.449
 444  1696.561
 445  1538.685
 446  1532.637
 447  1588.053
 448  1603.122
 449  1529.851
 450  1506.205
 451  1549.728
 452  1726.796
 453  1690.713
 454  1705.564
 455  1543.44
 456  1458.715
 457  1596.745
 458  1756.208
 459  1910.771
 460  1865.009
 461  1808.087
 462  1910.094
 463  1883.25
 464  1814.687
 465  1844.736
 466  1999.92
 467  2043.416
 468  2025.408
 469  2006.375
 470  2047.33
 471  2010.588
 472  1892.846
 473  1829.458
 474  1707.406
 475  1715.878
 476  1772.812
 477  1828.827
 478  1853.692
 479  1829.221
 480  1871.747
 481  1848.516
 482  1768.663
 483  1643.125
 484  1673.651
 485  1700.872
 486  1783.616
 487  1785.977
 488  1616.419
 489  1723.473
 490  1727.058
 491  1831.1
 492  1650.956
 493  1696.472
 494  1548.368
 495  1458.97
 496  1559.564
 497  1737.994
 498  1797.408
 499  1687.719
 500  1735.237
 501  1806.634
 502  1810.504
 503  1829.926
 504  1831.16
 505  1932.687
 506  1816.841
 507  1762.879
 508  1690.08
 509  1827.488
 510  1791.902
 511  1735.939
 512  1610.363
 513  1500.601
 514  1377.374
 515  1356.848
 516  1478.784
 517  1561.669
 518  1469.001
 519  1350.276
 520  1258.505
 521  1256.611
 522  1217.571
 523  1279.782
 524  1230.608
 525  1297.977
 526  1304.034
 527  1326.544
 528  1217.484
 529  1133.995
 530  1241.473
 531  1315.335
 532  1432.149
 533  1538.674
 534  1639.772
 535  1446.36
 536  1271.402
 537  1189.195
 538  1269.11
 539  1377.528
 540  1395.102
 541  1327.583
 542  1167.373
 543  1119.529
 544  1026.184
 545  1162.61
 546  1207.873
 547  1305.625
 548  1236.919
 549  1124.092
 550  1093.956
 551  1074.349
 552  1172.656
 553  1178.312
 554  1207.437
 555  1184.752
 556  1256.2
 557  1287.062
 558  1355.784
 559  1252.365
 560  1308.816
 561  1435.91
 562  1520.105
 563  1411.169
 564  1367.187
 565  1432.939
 566  1565.533
 567  1620.982
 568  1658.188
 569  1660.821
 570  1762.629
 571  1813.695
 572  1756.837
 573  1596.487
 574  1575.388
 575  1603.55
 576  1766.726
 577  1766.46
 578  1801.359
 579  1715.813
 580  1659.433
 581  1617.703
 582  1536.963
 583  1397.457
 584  1359.329
 585  1440.469
 586  1556.616
 587  1468.702
 588  1587.633
 589  1632.999
 590  1704.177
 591  1593.184
 592  1529.988
 593  1522.691
 594  1622.108
 595  1794.873
 596  1789.213
 597  1829.247
 598  1833.243
 599  2036.865
 600  1938.349
 601  2098.565
 602  2108.585
 603  2335.292
 604  2486.83
 605  2574.234
 606  2557.269
 607  2512.681
 608  2570.643
 609  2578.486
 610  2477.152
 611  2376.459
 612  2244.768
 613  2167.25
 614  2151.603
 615  2108.184
 616  2025.728
 617  1987.067
 618  2024.069
 619  2066.142
 620  2043.426
 621  2082.095
 622  2048.24
 623  2042.36
 624  1892.484
 625  2015.527
 626  2049.878
 627  2055.292
 628  1916.393
 629  1819.972
 630  1712.635
 631  1680.979
 632  1768.813
 633  1915.082
 634  1925.178
 635  1824.158
 636  1765.991
 637  1677.31
 638  1632.17
 639  1580.412
 640  1528.104
 641  1532.615
 642  1421.394
 643  1215.826
 644  1159.09
 645  1194.039
 646  1159.163
 647  1050.594
 648  1097.552
 649  1139.862
 650  1095.581
 651  1074.092
 652  1143.36
 653  1112.679
 654  1059.277
 655  1071.381
 656  945.3416
 657  869.9919
 658  866.2682
 659  964.7907
 660  1049.493
 661  1094.343
 662  1123.86
 663  1162.719
 664  1241.854
 665  1425.202
 666  1446.027
 667  1261.77
 668  1100.644
 669  1069.734
 670  1081.379
 671  1127.358
 672  1134.923
 673  1106.206
 674  1009.317
 675  949.7836
 676  1093.143
 677  1095.69
 678  1071.824
 679  1046.82
 680  1091.458
 681  985.361
 682  969.0312
 683  883.0264
 684  804.515
 685  744.0142
 686  824.0189
 687  858.2552
 688  1013.082
 689  1091.753
 690  1245.775
 691  1184.324
 692  1068.85
 693  1064.554
 694  1086.665
 695  1209.521
 696  1175.081
 697  1228.073
 698  1176.911
 699  1207.779
 700  1110.031
 701  1150.396
 702  1303.856
 703  1263.483
 704  1255.154
 705  1298.814
 706  1326.802
 707  1262.792
 708  1224.16
 709  1226.313
 710  1187.026
 711  1254.405
 712  1254.402
 713  1201.804
 714  1252.354
 715  1308.706
 716  1299.62
 717  1253.358
 718  1461.445
 719  1608.429
 720  1566.334
 721  1449.054
 722  1455.794
 723  1418.431
 724  1472.007
 725  1450.422
 726  1547.484
 727  1418.866
 728  1408.113
 729  1389.586
 730  1509.39
 731  1527.768
 732  1490.427
 733  1374.372
 734  1300.357
 735  1276.866
 736  1443.749
 737  1523.587
 738  1571.189
 739  1454.538
 740  1446.947
 741  1518.871
 742  1690.274
 743  1657.085
 744  1699.644
 745  1517.005
 746  1452.616
 747  1301.142
 748  1395.813
 749  1421.997
 750  1387.664
 751  1314.498
 752  1551.528
 753  1751.779
 754  1795.338
 755  1673.77
 756  1660.346
 757  1645.921
 758  1680.284
 759  1585.113
 760  1610.177
 761  1580.857
 762  1630.225
 763  1669.462
 764  1763.384
 765  1785.731
 766  1643.981
 767  1669.403
 768  1640.687
 769  1822.324
 770  1821.865
 771  1766.207
 772  1712.417
 773  1637.769
 774  1574.418
 775  1506.993
 776  1628.401
 777  1729.187
 778  1872.542
 779  1939.788
 780  1892.766
 781  1834.738
 782  1726.819
 783  1770.637
 784  1858.237
 785  1888.773
 786  1927.252
 787  1917.732
 788  1864.851
 789  1701.071
 790  1625.153
 791  1597.631
 792  1608.171
 793  1506.374
 794  1486.499
 795  1432.602
 796  1372.197
 797  1267.442
 798  1227.228
 799  1390.592
 800  1287.546
 801  1198.312
 802  1206.219
 803  1293.395
 804  1311.779
 805  1294.209
 806  1273.011
 807  999.4459
 808  747.2971
 809  734.0157
 810  797.9169
 811  773.8403
 812  747.5963
 813  727.4377
 814  715.705
 815  880.1074
 816  1077.238
 817  1058.693
 818  921.8761
 819  887.0438
 820  977.0142
 821  1027.578
 822  930.255
 823  1000.036
 824  995.6692
 825  1016.832
 826  957.5911
 827  952.0862
 828  963.075
 829  1048.63
 830  1180.39
 831  1138.662
 832  1109.071
 833  1063.003
 834  1130.183
 835  1128.776
 836  1031.726
 837  1058.179
 838  975.3466
 839  1069.671
 840  1198.893
 841  1233.636
 842  1181.252
 843  1150.136
 844  1317.999
 845  1314.105
 846  1171.696
 847  1106.122
 848  1034.763
 849  957.962
 850  1034.447
 851  1077.871
 852  1161.789
 853  1126.371
 854  1203.217
 855  1152.966
 856  1013.65
 857  848.9548
 858  785.7758
 859  986.9955
 860  1168.104
 861  1304.096
 862  1317.636
 863  1325.765
 864  1271.59
 865  1275.614
 866  1256.561
 867  1256.754
 868  1235.765
 869  1264.43
 870  1325.966
 871  1256.696
 872  1224.699
 873  1198.454
 874  1279.003
 875  1264.209
 876  1308.937
 877  1223.002
 878  1159.618
 879  1024.216
 880  1042.97
 881  1162.586
 882  1177.494
 883  1385.212
 884  1630.561
 885  1684.612
 886  1543.86
 887  1379.892
 888  1404.747
 889  1371.201
 890  1391.84
 891  1469.089
 892  1477.53
 893  1453.548
 894  1484.229
 895  1594.55
 896  1768.96
 897  1925.208
 898  1928.993
 899  1993.774
 900  1958.42
 901  1905.88
 902  1798.296
 903  1776.311
 904  1841.246
 905  1919.374
 906  1947.488
 907  1823.118
 908  1625.72
 909  1570.299
 910  1680.353
 911  1835.702
 912  1883.394
 913  1906.44
 914  1915.427
 915  1860.816
 916  1659.208
 917  1490.913
 918  1663.607
 919  1921.917
 920  2119.074
 921  1990.163
 922  1985.766
 923  2022.033
 924  2031.65
 925  2051.181
 926  2109.264
 927  2061.438
 928  1962.321
 929  1817.592
 930  1782.108
 931  1640.391
 932  1584.672
 933  1656.658
 934  1777.344
 935  1869.786
 936  1928.33
 937  1766.129
 938  1718.167
 939  1747.094
 940  1833.313
 941  1658.83
 942  1443.781
 943  1363.925
 944  1475.862
 945  1449.592
 946  1376.009
 947  1364.618
 948  1362.29
 949  1408.944
 950  1392.682
 951  1452.436
 952  1514.377
 953  1475.772
 954  1474.447
 955  1437.799
 956  1349.111
 957  1291.815
 958  1313.4
 959  1377.747
 960  1458.978
 961  1376.774
 962  1249.29
 963  1044.955
 964  1070.625
 965  1074.725
 966  1276.62
 967  1367.296
 968  1445.876
 969  1376.726
 970  1088.76
 971  929.7588
 972  908.6957
 973  1072.078
 974  1263.607
 975  1370.702
 976  1483.043
 977  1524.654
 978  1387.309
 979  1241.247
 980  1063.505
 981  1130.268
 982  1201.867
 983  1299.521
 984  1366.9
 985  1463.655
 986  1519.508
 987  1435.821
 988  1226.582
 989  1215.572
 990  1174.091
 991  1415.78
 992  1377.326
 993  1336.115
 994  1279.077
 995  1309.665
 996  1309.657
 997  1255.83
 998  1200.817
 999  1293.882
1000  1225.611
1001  1272.086
1002  1233.398
1003  1371.516
1004  1453.761
1005  1484.264
1006  1368.475
1007  1211.043
1008  1192.761
1009  1242.849
1010  1357.697
1011  1257.253
1012  1193.528
1013  1182.244
1014  1276.136
1015  1401.647
1016  1396.625
1017  1416.485
1018  1280.045
1019  1460.196
1020  1530.503
1021  1433.204
1022  1437.346
1023  1546.785
