# Input file       =  1205770295.108667_cleaned.dat
# Candidate        =  PSR_0332+5434
# Telescope        =  AR
# Epoch_topo       =  58199.674931813272
# Epoch_bary       =  N/A
# T_sample         =  0.002
# Data Folded      =  7340032
# Data Avg         =  0.255479807168221
# Data StdDev      =  4.98633920148365 
# Profile Bins     =  256
# Profile Avg      =  7325.43546479204 
# Profile StdDev   =  844.32726270324  
# Reduced chi-sqr  =  0.879
# Prob(Noise)      <  0.92   (~0.0 sigma)
# P_topo (ms)      =  714.574896779348  +/- 0.000738
# P'_topo (s/s)    =  -0                +/- 3.89e-10
# P''_topo (s/s^2) =  0                 +/- 1.72e-13
# P_bary (ms)      =  N/A
# P'_bary (s/s)    =  N/A
# P''_bary (s/s^2) =  N/A
# P_orb (s)        =  N/A
# asin(i)/c (s)    =  N/A
# eccentricity     =  N/A
# w (rad)          =  N/A
# T_peri           =  N/A
######################################################
   0  6683.583
   1  6824.289
   2  8097.677
   3  7592.052
   4  7630.521
   5  7495.621
   6  7522.919
   7  7670.757
   8  7189.944
   9  7267.03
  10  7207.887
  11  7411.649
  12  7369.129
  13  8192.702
  14  7650.206
  15  7142.165
  16  7259.847
  17  8219.19
  18  7963.471
  19  7639.673
  20  7415.018
  21  7776.615
  22  7403.676
  23  7909.05
  24  8168.432
  25  8224.613
  26  8511.248
  27  8457.406
  28  9045.984
  29  9682.569
  30  8174.909
  31  8427.539
  32  8174.257
  33  8652.673
  34  8077.989
  35  8325.02
  36  7946.132
  37  8209.002
  38  7654.654
  39  7674.15
  40  7819.574
  41  7485.86
  42  8039.717
  43  7880.324
  44  7385.349
  45  8190.197
  46  8123.543
  47  7909.884
  48  7571.711
  49  7507.761
  50  8768.412
  51  8228.698
  52  6316.925
  53  7767.573
  54  7416.67
  55  7341.347
  56  7287.1
  57  7862.846
  58  6632.406
  59  6476.249
  60  6475.083
  61  6725.32
  62  6646.161
  63  7394.523
  64  6970.199
  65  7370.853
  66  7018.67
  67  7791.186
  68  7228.333
  69  7494.869
  70  6996.074
  71  7820.94
  72  7018.497
  73  6450.419
  74  6986.273
  75  6365.463
  76  6567.29
  77  6793.526
  78  6883.488
  79  7424.603
  80  7366.288
  81  8279.766
  82  8185.802
  83  7536.627
  84  7548.379
  85  7181.66
  86  6635.309
  87  6474.643
  88  7196.351
  89  7455.228
  90  7644.003
  91  7012.427
  92  6908.78
  93  7496.797
  94  7215.351
  95  7378.055
  96  6762.644
  97  6741.419
  98  6990.964
  99  6780.613
 100  6989.56
 101  6614.546
 102  7154.721
 103  7952.144
 104  8315.611
 105  7616.835
 106  7526.173
 107  8060.117
 108  7598.502
 109  7081.643
 110  7177.2
 111  6964.695
 112  6966.817
 113  7039.184
 114  7388.458
 115  7191.167
 116  6802.71
 117  6618.079
 118  7539.109
 119  7300.868
 120  7346.041
 121  7382.053
 122  7912.952
 123  7090.288
 124  6725.533
 125  6568.438
 126  6746.116
 127  6802.538
 128  5970.394
 129  7022.069
 130  7853.397
 131  6765.696
 132  6455.037
 133  5967.816
 134  7113.217
 135  6740.284
 136  6539.652
 137  7168.742
 138  6518.452
 139  6918.433
 140  7670.136
 141  6971.073
 142  6451.168
 143  7024.53
 144  6883.021
 145  6962.388
 146  6367.038
 147  7706.615
 148  7588.481
 149  7727.995
 150  9055.009
 151  11109.01
 152  9797.235
 153  7754.229
 154  7412.789
 155  7225.951
 156  7024.231
 157  7437.163
 158  8010.657
 159  7251.661
 160  7082.264
 161  6174.878
 162  6663.363
 163  6507.727
 164  6654.367
 165  6609.992
 166  6414.152
 167  6085.801
 168  6269.026
 169  6332.336
 170  7139.407
 171  7097.768
 172  6808.938
 173  6754.601
 174  7121.201
 175  7149.134
 176  6912.331
 177  7521.239
 178  7460.202
 179  6375.388
 180  7108.897
 181  7283.743
 182  7478.156
 183  7763.903
 184  7820.721
 185  7664.013
 186  8443.404
 187  8212.711
 188  8195.702
 189  7704.82
 190  7967.948
 191  7548.949
 192  7382.14
 193  6611.061
 194  6499.691
 195  6853.098
 196  7142.408
 197  7271.112
 198  7325.969
 199  6903.521
 200  6867.713
 201  6919.095
 202  6795.144
 203  6939.083
 204  6360.371
 205  6320.929
 206  5975.033
 207  6165.51
 208  6655.46
 209  7094.272
 210  6908.362
 211  6247.903
 212  6754.262
 213  6350.027
 214  6808.725
 215  6755.827
 216  6981.778
 217  6559.001
 218  7163.749
 219  7572.179
 220  7793.986
 221  7285.472
 222  6773.79
 223  6840.292
 224  6275.993
 225  6383.422
 226  6523.813
 227  6950.097
 228  7314.206
 229  7330.86
 230  6965.605
 231  7897.797
 232  7937.291
 233  8104.17
 234  7744.393
 235  7060.001
 236  7603.194
 237  7927.62
 238  7562.2
 239  8245.737
 240  7306.724
 241  7874.144
 242  7543.317
 243  7612.37
 244  8196.983
 245  7888.756
 246  7956.331
 247  8269.441
 248  7990.562
 249  7895.823
 250  6269.125
 251  7215.942
 252  7393.983
 253  7795.25
 254  7842.055
 255  7128.294
