# Input file       =  1205999253.103225_cleaned.dat
# Candidate        =  PSR_0332+5434
# Telescope        =  AR
# Epoch_topo       =  58202.324908602139
# Epoch_bary       =  N/A
# T_sample         =  0.002
# Data Folded      =  7208960
# Data Avg         =  0.214359539887994
# Data StdDev      =  5.64899935510075 
# Profile Bins     =  1024
# Profile Avg      =  1509.00493219003 
# Profile StdDev   =  473.977640554972 
# Reduced chi-sqr  =  1.467
# Prob(Noise)      <  9.54e-21   (~9.3 sigma)
# P_topo (ms)      =  714.573275118613  +/- 2.15e-05
# P'_topo (s/s)    =  -0                +/- 1.16e-11
# P''_topo (s/s^2) =  0                 +/- 5.2e-15
# P_bary (ms)      =  N/A
# P'_bary (s/s)    =  N/A
# P''_bary (s/s^2) =  N/A
# P_orb (s)        =  N/A
# asin(i)/c (s)    =  N/A
# eccentricity     =  N/A
# w (rad)          =  N/A
# T_peri           =  N/A
######################################################
   0  1233.809
   1  1177.024
   2  1241.303
   3  1344.491
   4  1268.419
   5  1402.579
   6  1444.265
   7  1605.764
   8  1375.611
   9  1524.37
  10  1516.486
  11  1780.671
  12  1778.422
  13  1992.301
  14  1934.679
  15  1834.543
  16  1450.112
  17  1122.922
  18  975.0408
  19  1106.865
  20  1037.963
  21  1172.624
  22  1187.104
  23  1471.428
  24  1553.349
  25  1511.528
  26  1595.652
  27  1519.63
  28  1685.535
  29  1820.956
  30  1892.465
  31  1848.9
  32  1710.363
  33  1656.821
  34  1453.859
  35  1196.192
  36  1202.611
  37  1311.821
  38  1504.842
  39  1522.881
  40  1427.342
  41  1434.94
  42  1498.576
  43  1762.378
  44  1916.156
  45  1906.937
  46  1936.984
  47  1949.568
  48  1877.958
  49  1672.85
  50  1485.656
  51  1421.356
  52  1278.97
  53  1196.412
  54  1252.577
  55  1312.411
  56  1457.536
  57  1341.431
  58  1409.383
  59  1311.33
  60  1329.656
  61  1618.933
  62  1698.802
  63  1908.378
  64  1875.987
  65  1933.718
  66  1955.018
  67  1597.251
  68  1445.613
  69  1245.677
  70  1310.098
  71  1426.759
  72  1463.373
  73  1541.363
  74  1580.291
  75  1669.555
  76  1863.221
  77  1988.885
  78  2044.21
  79  2156.197
  80  2138.211
  81  2174.585
  82  1837.423
  83  1684.221
  84  1700.101
  85  1433.736
  86  1305.018
  87  1121.177
  88  1348.331
  89  1279.824
  90  1158.039
  91  1391.575
  92  1472.403
  93  1722.416
  94  1861.397
  95  2087.855
  96  2320.923
  97  2257.641
  98  2132.627
  99  1947.251
 100  1635.1
 101  1479.479
 102  1394.577
 103  1513.087
 104  1543.083
 105  1466.845
 106  1526.418
 107  1582.651
 108  1603.805
 109  1584.979
 110  1557.33
 111  1619.242
 112  1662.479
 113  1821.185
 114  1844.626
 115  1773.872
 116  1611.16
 117  1452.716
 118  1318.853
 119  1412.676
 120  1339.316
 121  1432.588
 122  1218.083
 123  1215.685
 124  1257.965
 125  1296.507
 126  1514.102
 127  1592.383
 128  1724.617
 129  1794.339
 130  1812.782
 131  1881.624
 132  1731.124
 133  1571.803
 134  1435.772
 135  1261.898
 136  1454.905
 137  1419.299
 138  1533.376
 139  1500.027
 140  1507.168
 141  1470.286
 142  1489.023
 143  1650.823
 144  1902.131
 145  1788.101
 146  1721.128
 147  1649.927
 148  1706.838
 149  1677.499
 150  1258.039
 151  1070.751
 152  966.6378
 153  1380.008
 154  1556.549
 155  1510.404
 156  1446.057
 157  1466.63
 158  1563.897
 159  1656.194
 160  1643.995
 161  1712.714
 162  1696.922
 163  1841.748
 164  1812.981
 165  1574.395
 166  1385.849
 167  1369.584
 168  1332.289
 169  1411.928
 170  1402.584
 171  1811.723
 172  1880.67
 173  1893.956
 174  1651.826
 175  1524.914
 176  1438.252
 177  1512.749
 178  1666.029
 179  1708.506
 180  1676.443
 181  1619.471
 182  1387.701
 183  1176.247
 184  1073.954
 185  1030.779
 186  1199.847
 187  1194.426
 188  1358.348
 189  1387.201
 190  1288.14
 191  1363.813
 192  1385.667
 193  1548.665
 194  1651.44
 195  1586.666
 196  1737.584
 197  1541.909
 198  1345.659
 199  1132.11
 200  1105.704
 201  1153.336
 202  1212.802
 203  1451.459
 204  1563.106
 205  1390.5
 206  1311.771
 207  1257.11
 208  1444.791
 209  1586.939
 210  1642.678
 211  1756.534
 212  1822.391
 213  1806.75
 214  1573.168
 215  1163.514
 216  1031.252
 217  1095.41
 218  1236.571
 219  1261.222
 220  958.3502
 221  1232.922
 222  1315.483
 223  1456.535
 224  1387.243
 225  1380.415
 226  1667.075
 227  1877.545
 228  1995.096
 229  1841.166
 230  1638.315
 231  1551.232
 232  1396.886
 233  1029.102
 234  898.0889
 235  921.8091
 236  1282.366
 237  1445.037
 238  1514.808
 239  1575.785
 240  1441.677
 241  1495.375
 242  1514.876
 243  1759.199
 244  1994.885
 245  1942.923
 246  1894.097
 247  1524.202
 248  1205.531
 249  972.5864
 250  1009.305
 251  1221.605
 252  1140.922
 253  1127.777
 254  1172.595
 255  1173.19
 256  1153.399
 257  1227.033
 258  1504.7
 259  1757.577
 260  1822.698
 261  2062.154
 262  2052.297
 263  1969.001
 264  1743.065
 265  1327.609
 266  1297.214
 267  1345.875
 268  1403.636
 269  1250.557
 270  1048.591
 271  1203.527
 272  1215.083
 273  1466.366
 274  1570.157
 275  1771.387
 276  1868.45
 277  2060.004
 278  2205.974
 279  2202.249
 280  1926.034
 281  1757.793
 282  1603.615
 283  1404.783
 284  1326.642
 285  1232.713
 286  1412.775
 287  1399.184
 288  1318.672
 289  1343.137
 290  1302.83
 291  1470.155
 292  1603.135
 293  1761.716
 294  1863.439
 295  1889.411
 296  1949.86
 297  1810.203
 298  1518.424
 299  1289.74
 300  1352.923
 301  1535.177
 302  1719.196
 303  1587.258
 304  1453.004
 305  1424.494
 306  1576.05
 307  1646.675
 308  1703.193
 309  1873.783
 310  1913.016
 311  1969.993
 312  1959.067
 313  1867.935
 314  1733.341
 315  1551.398
 316  1456.355
 317  1420.627
 318  1410.919
 319  1687.798
 320  1614.429
 321  1571.888
 322  1371.389
 323  1362.706
 324  1519.774
 325  1598.726
 326  1866.268
 327  2023.299
 328  1953.34
 329  1950.433
 330  1698.031
 331  1506.022
 332  1372.088
 333  1529.347
 334  1769.893
 335  1687.623
 336  1694.723
 337  1729.263
 338  1798.312
 339  1809.928
 340  1890.604
 341  1989.961
 342  2122.619
 343  2026.285
 344  1944.912
 345  1787.625
 346  1669.932
 347  1429.095
 348  1232.79
 349  1263.836
 350  1424.756
 351  1696.149
 352  1748.302
 353  1540.164
 354  1538.47
 355  1515.061
 356  1696.024
 357  1609.969
 358  1634.498
 359  1824.869
 360  2017.258
 361  2240.996
 362  2026.898
 363  1651.763
 364  1328.565
 365  1202.884
 366  1192.153
 367  1278.121
 368  1353.481
 369  1625.5
 370  1563.522
 371  1656.934
 372  1429.61
 373  1425.837
 374  1483.245
 375  1682.113
 376  1737.969
 377  1799.381
 378  1710.346
 379  1658.574
 380  1332.213
 381  1151.313
 382  998.2294
 383  1150.222
 384  1373.328
 385  1365.567
 386  1277.423
 387  1292.836
 388  1353.441
 389  1415.753
 390  1420.055
 391  1667.745
 392  1866.635
 393  1941.347
 394  2055.205
 395  1806.178
 396  1488.727
 397  1248.269
 398  1135.356
 399  1105.344
 400  1071.943
 401  1248.507
 402  1433.774
 403  1598.386
 404  1689.891
 405  1590.176
 406  1512.474
 407  1687.147
 408  1825.193
 409  1973.055
 410  1944.097
 411  1878.919
 412  1818.629
 413  1402.659
 414  1237.24
 415  1099.622
 416  1094.407
 417  1122.212
 418  887.8998
 419  943.4404
 420  889.0894
 421  1109.418
 422  1199.695
 423  1226.402
 424  1317.956
 425  1645.137
 426  1971.05
 427  2082.438
 428  1815.04
 429  1694.993
 430  1337.328
 431  1122.379
 432  1012.582
 433  1042.51
 434  1020.407
 435  1009.298
 436  1038.862
 437  1060.091
 438  1074.029
 439  1306.776
 440  1625.374
 441  1698.674
 442  1798.573
 443  1794.261
 444  1954.15
 445  1778.703
 446  1606.677
 447  1335.156
 448  1128.961
 449  1023.716
 450  968.8674
 451  991.529
 452  1052.151
 453  994.322
 454  1050.234
 455  983.5512
 456  1264.712
 457  1574.416
 458  1954.617
 459  2266.187
 460  2385.511
 461  2026.126
 462  1639.983
 463  1262.253
 464  1113.846
 465  937.0061
 466  1028.697
 467  1400.699
 468  1515.51
 469  1507.406
 470  1327.753
 471  1471.09
 472  1534.871
 473  1695.241
 474  1764.448
 475  1986.48
 476  1952.053
 477  1966.073
 478  1854.308
 479  1726.858
 480  1378.565
 481  1194.283
 482  1303.786
 483  1400.719
 484  1544.071
 485  1509.069
 486  1460.236
 487  1359.577
 488  1374.043
 489  1507.871
 490  1561.68
 491  1655.815
 492  1787.309
 493  1746.207
 494  1797.574
 495  1590.188
 496  1423.307
 497  1270.648
 498  1286.312
 499  1446.097
 500  1587.749
 501  1676.521
 502  1703.202
 503  1546.147
 504  1485.767
 505  1457.899
 506  1538.617
 507  1588.41
 508  1744.842
 509  1660.969
 510  1596.166
 511  1454.643
 512  1475.74
 513  1205.952
 514  1116.081
 515  958.7245
 516  1115.433
 517  1236.239
 518  1245.938
 519  1357.852
 520  1274.463
 521  1471.8
 522  1543.606
 523  1567.542
 524  1727.236
 525  1969.518
 526  2120.156
 527  2170.548
 528  1799.807
 529  1531.418
 530  1255.265
 531  1204.083
 532  1211.089
 533  1145.291
 534  1123.715
 535  1090.738
 536  1101.844
 537  1242.878
 538  1406.607
 539  1624.992
 540  1790.41
 541  1864.112
 542  1795.67
 543  1670.372
 544  1596.885
 545  1399.609
 546  1113.99
 547  988.5499
 548  1034.407
 549  1251.525
 550  1261.716
 551  1130.667
 552  1061.287
 553  1098.611
 554  1284.125
 555  1391.661
 556  1451.766
 557  1624.371
 558  1804.765
 559  1871.107
 560  1777.495
 561  1398.542
 562  1221.369
 563  934.7709
 564  890.916
 565  912.0461
 566  1090.967
 567  1189.862
 568  1327.562
 569  1402.021
 570  1345.433
 571  1323.633
 572  1520.761
 573  1851.847
 574  1975.094
 575  1903.596
 576  1592.478
 577  1535.485
 578  1206.769
 579  1060.368
 580  924.5306
 581  816.7605
 582  859.4863
 583  846.0622
 584  980.749
 585  991.1721
 586  1063.617
 587  1245.196
 588  1380.083
 589  1467.859
 590  1703.086
 591  1813.04
 592  2027.712
 593  1970.262
 594  1683.16
 595  1417.298
 596  1151.367
 597  1333.785
 598  1290.901
 599  1458.695
 600  1749.059
 601  1901.776
 602  2030.545
 603  2035.224
 604  2221.591
 605  2417.872
 606  2639.807
 607  2952.749
 608  3133.057
 609  2963.572
 610  2532.872
 611  1949.073
 612  1707.369
 613  1324.568
 614  1154.98
 615  1077.664
 616  1093.369
 617  1046.68
 618  964.0634
 619  1148.248
 620  1278.464
 621  1339.481
 622  1567.53
 623  1866.928
 624  2128.717
 625  2078.452
 626  1817.178
 627  1590.979
 628  1284.469
 629  1248.567
 630  1274.758
 631  1241.419
 632  1266.468
 633  1289.508
 634  1229.593
 635  1166.453
 636  1138.572
 637  1257.102
 638  1368.338
 639  1525.722
 640  1614.002
 641  1623.244
 642  1791.26
 643  1722.548
 644  1433.204
 645  1037.628
 646  888.6216
 647  1131.455
 648  1168.153
 649  1373.925
 650  1251.618
 651  1248.166
 652  1259.898
 653  1158.083
 654  1212.794
 655  1250.166
 656  1468.984
 657  1597.598
 658  1642.801
 659  1472.285
 660  1336.771
 661  1156.985
 662  1199.779
 663  970.534
 664  1105.647
 665  1153.779
 666  1338.573
 667  1343.017
 668  1208.844
 669  1173.864
 670  1290.006
 671  1406.753
 672  1404.302
 673  1569.723
 674  1710.119
 675  1608.948
 676  1380.487
 677  1322.852
 678  1218.982
 679  1203.027
 680  1070.297
 681  1025.078
 682  1126.167
 683  1226.233
 684  1326.429
 685  1211.846
 686  1175.739
 687  1255.807
 688  1497.564
 689  1773.467
 690  1834.556
 691  1814.39
 692  1713.026
 693  1520.626
 694  1170.836
 695  1069.168
 696  965.0677
 697  1081.509
 698  1227.916
 699  1348.798
 700  1367.526
 701  1304.39
 702  1429.722
 703  1466.653
 704  1567.764
 705  1687.448
 706  1856.165
 707  1917.179
 708  1778.951
 709  1516.162
 710  1231.825
 711  1094.993
 712  1143.745
 713  1035.314
 714  1057.932
 715  1125.147
 716  1301.724
 717  1350.63
 718  1284.01
 719  1244.827
 720  1420.354
 721  1614.128
 722  1679.022
 723  1876.815
 724  1869.371
 725  1839.67
 726  1419.884
 727  1174.676
 728  972.4701
 729  924.0226
 730  998.076
 731  1089.373
 732  1124.212
 733  1168.733
 734  1260.955
 735  1384.868
 736  1541.498
 737  1700.814
 738  1946.003
 739  1916.9
 740  1898.126
 741  1703.713
 742  1734.156
 743  1502.802
 744  1194.265
 745  1043.239
 746  699.6312
 747  868.2441
 748  856.2603
 749  1210.057
 750  1157.66
 751  1133.683
 752  1370.096
 753  1451.215
 754  1558.522
 755  1626.067
 756  1828.919
 757  1994.589
 758  1902.243
 759  1705.5
 760  1565.601
 761  1338.755
 762  1274.602
 763  1147.689
 764  1205.549
 765  1259.18
 766  1301.69
 767  1391.219
 768  1399.852
 769  1404.941
 770  1512.904
 771  1775.093
 772  1892.473
 773  2007.463
 774  1836.97
 775  1754.032
 776  1605.304
 777  1577.542
 778  1326.533
 779  1132.311
 780  1143.76
 781  1142.994
 782  1321.979
 783  1183.711
 784  1291.026
 785  1400.493
 786  1530.194
 787  1576.436
 788  1574.334
 789  1779.326
 790  2028.101
 791  2014.508
 792  1922.528
 793  1422.86
 794  1163.016
 795  1142.347
 796  1187.192
 797  1339.714
 798  1287.012
 799  1449.34
 800  1395.423
 801  1385.082
 802  1427.813
 803  1634.709
 804  1808.795
 805  1795.256
 806  1790.558
 807  1891.836
 808  1864.067
 809  1589.059
 810  1489.717
 811  1180.61
 812  1219.112
 813  1138.028
 814  1380.03
 815  1256.9
 816  1181.176
 817  1183.797
 818  1119.017
 819  1121.702
 820  1216.698
 821  1509.881
 822  1921.418
 823  2026.625
 824  1889.082
 825  1743.623
 826  1610.383
 827  1602.391
 828  1293.743
 829  1124.171
 830  1074.616
 831  1202.658
 832  1291.888
 833  1249.22
 834  986.6711
 835  1083.394
 836  1172.243
 837  1461.52
 838  1502.813
 839  1647.746
 840  1808.857
 841  1711.556
 842  1478.429
 843  1232.926
 844  1175.892
 845  1317.899
 846  1191.857
 847  1136.102
 848  1025.63
 849  1283.108
 850  1415.518
 851  1413.815
 852  1371.37
 853  1401.876
 854  1621.994
 855  1780.597
 856  1874.114
 857  1878.015
 858  1726.431
 859  1565.576
 860  1433.243
 861  1232.025
 862  1208.803
 863  1222.084
 864  1395.791
 865  1427.919
 866  1420.276
 867  1248.067
 868  1275.383
 869  1303.723
 870  1553.063
 871  1752.463
 872  1978.03
 873  1942.556
 874  1680.176
 875  1447.768
 876  1252.575
 877  1296.995
 878  1204.559
 879  1252.982
 880  1374.889
 881  1434.679
 882  1528.9
 883  1361.735
 884  1226.063
 885  1240.735
 886  1458.379
 887  1808.393
 888  1904.161
 889  1979.281
 890  2081.94
 891  2148.003
 892  1804.398
 893  1466.2
 894  1136.964
 895  1155.036
 896  1197.28
 897  1388.578
 898  1498.531
 899  1524.138
 900  1475.625
 901  1371.338
 902  1434.149
 903  1748.24
 904  2083.354
 905  2285.016
 906  2216.149
 907  2068.752
 908  1830.468
 909  1643.409
 910  1745.378
 911  1655.269
 912  1635.297
 913  1535.875
 914  1602.701
 915  1684.815
 916  1594.666
 917  1513.94
 918  1623.906
 919  1877.037
 920  2040.384
 921  2021.301
 922  1958.154
 923  1981.609
 924  1862.754
 925  1763.24
 926  1536.305
 927  1482.216
 928  1346.244
 929  1480.191
 930  1553.094
 931  1551.492
 932  1542.774
 933  1634.222
 934  1622.841
 935  1675.622
 936  1792.657
 937  2126.223
 938  2237.367
 939  2049.919
 940  2043.693
 941  1973.412
 942  1804.718
 943  1438.073
 944  1313.051
 945  1504.161
 946  1486.018
 947  1523.662
 948  1369.785
 949  1406.234
 950  1533.292
 951  1447.297
 952  1595.069
 953  1794.131
 954  2064.087
 955  2280
 956  2185.769
 957  2187.33
 958  1907.945
 959  1690.909
 960  1541.061
 961  1417.873
 962  1548.397
 963  1473.693
 964  1587.396
 965  1619.13
 966  1576.416
 967  1450.381
 968  1445.256
 969  1655.948
 970  2009.018
 971  2101.206
 972  2238.642
 973  2023.754
 974  1835.137
 975  1689.008
 976  1484.057
 977  1570.224
 978  1490.409
 979  1514.756
 980  1492.278
 981  1298.712
 982  1195.082
 983  1205.579
 984  1366.344
 985  1635.477
 986  1699.06
 987  1899.454
 988  2009.044
 989  2202.308
 990  2041.257
 991  1580.781
 992  1296.865
 993  1317.024
 994  1351.234
 995  1438.309
 996  1310.99
 997  1429.723
 998  1412.397
 999  1373.776
1000  1299.267
1001  1340.979
1002  1462.281
1003  1626.746
1004  1728.234
1005  1885.675
1006  1893.172
1007  1735.337
1008  1475.895
1009  1059.964
1010  1162.396
1011  1264.548
1012  1606.889
1013  1446.273
1014  1248.161
1015  1190.596
1016  1139.456
1017  1078.46
1018  1151.466
1019  1377.923
1020  1757.76
1021  1908.421
1022  1954.208
1023  1607.628
