# Input file       =  1205927696.108282_cleaned.dat
# Candidate        =  PSR_0332+5434
# Telescope        =  AR
# Epoch_topo       =  58201.496702642151
# Epoch_bary       =  N/A
# T_sample         =  0.002
# Data Folded      =  7340032
# Data Avg         =  0.0761744268988719
# Data StdDev      =  1.00013630386455 
# Profile Bins     =  512
# Profile Avg      =  1092.08003517868 
# Profile StdDev   =  119.749356452339 
# Reduced chi-sqr  =  0.996
# Prob(Noise)      <  0.519   (~0.0 sigma)
# P_topo (ms)      =  714.573697400425  +/- 0.000456
# P'_topo (s/s)    =  -0                +/- 2.41e-10
# P''_topo (s/s^2) =  0                 +/- 1.06e-13
# P_bary (ms)      =  N/A
# P'_bary (s/s)    =  N/A
# P''_bary (s/s^2) =  N/A
# P_orb (s)        =  N/A
# asin(i)/c (s)    =  N/A
# eccentricity     =  N/A
# w (rad)          =  N/A
# T_peri           =  N/A
######################################################
   0  1605.748
   1  1452.688
   2  1268.188
   3  1113.923
   4  1047.493
   5  960.6674
   6  904.3261
   7  991.9635
   8  1015.43
   9  987.2306
  10  995.0323
  11  1001.114
  12  983.7632
  13  1048.947
  14  1066.524
  15  1034.802
  16  1017.232
  17  1078.195
  18  1103.958
  19  1143.969
  20  1215.669
  21  1171.737
  22  1114.435
  23  1086.538
  24  1123.253
  25  1095.781
  26  1117.993
  27  1179.239
  28  1130.783
  29  1084.309
  30  1087.043
  31  1067.061
  32  1043.451
  33  1061.573
  34  1089.981
  35  1083.052
  36  1084.702
  37  1077.38
  38  1105.41
  39  1145.127
  40  1119.635
  41  1090.295
  42  1081.747
  43  1075.351
  44  1165.679
  45  1263.341
  46  1193.306
  47  1145.312
  48  1212.345
  49  1128.515
  50  1061.022
  51  1136.397
  52  1136.162
  53  1112.547
  54  1168.583
  55  1264.42
  56  1222.378
  57  1133.774
  58  1122.094
  59  1214.944
  60  1205.636
  61  1220.552
  62  1183.742
  63  1195.289
  64  1161.467
  65  1139.778
  66  1147.672
  67  1114.115
  68  1145.755
  69  1175.583
  70  1088.909
  71  1053.036
  72  1104.853
  73  1064.639
  74  1082.299
  75  1175.193
  76  1156.647
  77  1098.004
  78  1090.494
  79  1073.889
  80  1006.72
  81  1044.556
  82  1036.18
  83  1050.098
  84  1106.024
  85  1121.891
  86  1169.545
  87  1129.778
  88  1123.142
  89  1173.477
  90  1108.105
  91  1084.226
  92  1099.467
  93  1160.845
  94  1130.674
  95  1213.06
  96  1156.237
  97  1079.332
  98  1111.571
  99  1155.291
 100  1140.676
 101  1225.574
 102  1217.317
 103  1176.561
 104  1116.373
 105  1055.7
 106  1047.484
 107  1023.012
 108  1125.502
 109  1135.52
 110  1059.306
 111  1054.99
 112  1024.512
 113  1012.272
 114  1144.192
 115  1132.182
 116  1147.616
 117  1094.811
 118  1093.319
 119  1091.31
 120  1067.237
 121  1062.548
 122  1110.437
 123  1152.657
 124  1162.373
 125  1186.136
 126  1112.26
 127  1121.623
 128  1156.113
 129  1086.854
 130  1102.218
 131  1035.384
 132  1021.166
 133  1034.376
 134  1060.649
 135  1088.313
 136  1134.134
 137  1091.529
 138  1026.381
 139  1058.762
 140  1029.182
 141  1027.904
 142  1113.466
 143  1183.56
 144  1062.524
 145  1082.465
 146  1157.968
 147  1158.428
 148  1131.151
 149  1158.092
 150  1170.934
 151  1187.584
 152  1195.091
 153  1045.271
 154  1075.77
 155  1078.608
 156  1116.266
 157  1120.147
 158  1051.607
 159  1081.444
 160  1097.561
 161  1095.773
 162  1055.213
 163  1039.458
 164  996.9379
 165  1061.795
 166  1011.419
 167  1028.916
 168  1115.458
 169  1141.09
 170  1094.085
 171  985.2611
 172  1003.247
 173  1066.901
 174  1076.806
 175  1075.067
 176  1039.594
 177  1028.495
 178  1067.956
 179  1051.238
 180  1098.68
 181  1126.93
 182  1121.077
 183  1077.34
 184  1034.489
 185  1055.944
 186  1047.623
 187  1030.797
 188  1066.598
 189  1122.069
 190  1120.949
 191  1097.798
 192  1120.123
 193  1030.481
 194  972.3121
 195  1022.542
 196  1070.906
 197  1089.855
 198  1118.887
 199  1133.906
 200  1137.523
 201  1117.705
 202  1185.973
 203  1193.171
 204  1170.692
 205  1183.027
 206  1168.385
 207  1190.038
 208  1225.398
 209  1178.508
 210  1189.877
 211  1235
 212  1289.854
 213  1263.498
 214  1248.123
 215  1220.771
 216  1202.404
 217  1212.011
 218  1271.943
 219  1254.732
 220  1174.588
 221  1184.945
 222  1265.768
 223  1244.591
 224  1190.08
 225  1200.372
 226  1263.524
 227  1256.498
 228  1218.641
 229  1258.205
 230  1205.401
 231  1117.871
 232  1176.637
 233  1183.286
 234  1094.267
 235  1101.791
 236  1153.526
 237  1199.842
 238  1189.605
 239  1035.224
 240  1081.86
 241  1152.926
 242  1084.172
 243  1112.678
 244  1101.462
 245  1020.133
 246  1059.126
 247  1129.633
 248  1081.412
 249  1115.623
 250  1074.299
 251  1062.848
 252  1139.167
 253  1097.636
 254  1059.828
 255  992.5024
 256  1014.973
 257  990.6251
 258  893.1461
 259  1006.136
 260  997.9793
 261  997.9864
 262  1024.483
 263  1123.863
 264  1060.173
 265  1048.711
 266  1094.504
 267  1079.873
 268  1039.473
 269  996.346
 270  955.1409
 271  954.0705
 272  1016.588
 273  980.216
 274  1007.019
 275  997.4411
 276  994.012
 277  993.5972
 278  997.4631
 279  983.9931
 280  991.9764
 281  1014.616
 282  981.2913
 283  971.9339
 284  1021.838
 285  1021.786
 286  970.6686
 287  996.2576
 288  1049.49
 289  1112.052
 290  984.7496
 291  958.5479
 292  918.007
 293  861.2359
 294  856.8932
 295  917.1695
 296  955.6288
 297  891.972
 298  909.0026
 299  935.6693
 300  922.8046
 301  903.6508
 302  948.2584
 303  956.6812
 304  928.0849
 305  953.9688
 306  908.1232
 307  943.4764
 308  964.9923
 309  969.3132
 310  1070.858
 311  1088.041
 312  1050.048
 313  1079.61
 314  1013.325
 315  1051.583
 316  1045.365
 317  1055.692
 318  1126.683
 319  1038.859
 320  1058.095
 321  1131.619
 322  1087.019
 323  941.6093
 324  974.0875
 325  1082.884
 326  1053.715
 327  1026.722
 328  1058.243
 329  1056.665
 330  1117.235
 331  1118.411
 332  1095.432
 333  1038.664
 334  1104.113
 335  1058.716
 336  1087.107
 337  1078.763
 338  1081.551
 339  1078.888
 340  1083.784
 341  1054.505
 342  1109.632
 343  1104.302
 344  1124.684
 345  1169.906
 346  1157.526
 347  1114.083
 348  1111.311
 349  1238.997
 350  1247.069
 351  1189.396
 352  1144.414
 353  1207.078
 354  1209.067
 355  1236.097
 356  1178.955
 357  1138.466
 358  1108.326
 359  1153.49
 360  1130.666
 361  1113.703
 362  1170.944
 363  1106.931
 364  1102.888
 365  1049.165
 366  1102.989
 367  1131.021
 368  1063.814
 369  1073.242
 370  1047.762
 371  1056.252
 372  1063.895
 373  1153.384
 374  1132.363
 375  1044.418
 376  1101.521
 377  1072.212
 378  1057.202
 379  1155.853
 380  1160.421
 381  1191.143
 382  1204.105
 383  1149.645
 384  1114.97
 385  1105.833
 386  1178.625
 387  1187.185
 388  1110.841
 389  1185.114
 390  1092.881
 391  1075.65
 392  1106.993
 393  1022.894
 394  1009.654
 395  1130.846
 396  1061.351
 397  1056.597
 398  1129.224
 399  1107.465
 400  1118.772
 401  1080.96
 402  1033.479
 403  1090.454
 404  1139.009
 405  1162.68
 406  1133.663
 407  1156.709
 408  1125.981
 409  1050.255
 410  1086.043
 411  1099.131
 412  1162.205
 413  1199.264
 414  1206.293
 415  1162.149
 416  1121.217
 417  1134.302
 418  1188.298
 419  1065.33
 420  1044.221
 421  1011.946
 422  1091.232
 423  1126.792
 424  1040.053
 425  1012.229
 426  1072.967
 427  1004.974
 428  1055.543
 429  1159.229
 430  1194.936
 431  1178.722
 432  1061.342
 433  1007.143
 434  988.1697
 435  1021.515
 436  991.2291
 437  1014.226
 438  1095.92
 439  1077.066
 440  970.03
 441  979.2668
 442  1118.466
 443  1044.232
 444  966.332
 445  1045.56
 446  1064.192
 447  1028.934
 448  981.7305
 449  1059.41
 450  1064.16
 451  1079.168
 452  1073.354
 453  981.223
 454  890.982
 455  859.8967
 456  901.3224
 457  1041.958
 458  956.5651
 459  846.3354
 460  927.1552
 461  1003.932
 462  1081.81
 463  1021.628
 464  1003.697
 465  1104.771
 466  1117.221
 467  1093.971
 468  1130.664
 469  1094.466
 470  1046.5
 471  1050.285
 472  1084.853
 473  983.6071
 474  1045.946
 475  1062.172
 476  1047.624
 477  1088.531
 478  1040.1
 479  982.9248
 480  1049.536
 481  1038.004
 482  1075.656
 483  1075.148
 484  1076.165
 485  1073.425
 486  1069.651
 487  1071.427
 488  1086.595
 489  1124.039
 490  1157.271
 491  1086.046
 492  1159.872
 493  1113.427
 494  1090.631
 495  1127.75
 496  1081.265
 497  1094.685
 498  1034.96
 499  1028.165
 500  1035.152
 501  1044.791
 502  1109.008
 503  1068.399
 504  1104.495
 505  1097.001
 506  1094.481
 507  1212.516
 508  1211.743
 509  1332.308
 510  1411.479
 511  1570.6
