# Input file       =  1205051296.112978_cleaned.dat
# Candidate        =  PSR_0332+5434
# Telescope        =  AR
# Epoch_topo       =  58191.353184177984
# Epoch_bary       =  N/A
# T_sample         =  0.002
# Data Folded      =  7208960
# Data Avg         =  -0.110576970479451
# Data StdDev      =  6.63609581353486 
# Profile Bins     =  512
# Profile Avg      =  -1556.98545344031
# Profile StdDev   =  787.433659720946 
# Reduced chi-sqr  =  0.593
# Prob(Noise)      <  1   (~0.0 sigma)
# P_topo (ms)      =  714.577797068561  +/- 5.7e-05
# P'_topo (s/s)    =  -0                +/- 3.06e-11
# P''_topo (s/s^2) =  0                 +/- 1.38e-14
# P_bary (ms)      =  N/A
# P'_bary (s/s)    =  N/A
# P''_bary (s/s^2) =  N/A
# P_orb (s)        =  N/A
# asin(i)/c (s)    =  N/A
# eccentricity     =  N/A
# w (rad)          =  N/A
# T_peri           =  N/A
######################################################
   0  -487.775
   1  -929.467
   2  -1348.742
   3  -1588.499
   4  -1501.587
   5  -1501.577
   6  -1961.238
   7  -1628.563
   8  -1706.248
   9  -1515.911
  10  -1418.895
  11  -1513.372
  12  -1530.06
  13  -1437.807
  14  -1362.94
  15  -1821.906
  16  -1099.051
  17  -1125.459
  18  -1267.718
  19  -1465.247
  20  -1333.511
  21  -1289.505
  22  -1732.165
  23  -2013.006
  24  -2085.189
  25  -1594.145
  26  -1530.818
  27  -1718.688
  28  -1156.734
  29  -780.5592
  30  -1234.26
  31  -1609.545
  32  -1478.823
  33  -1351.306
  34  -906.2865
  35  -1173.426
  36  -934.1929
  37  241.0652
  38  695.2346
  39  -202.7837
  40  -1032.519
  41  -1304.555
  42  -1920.124
  43  -1762.169
  44  -1394.903
  45  -1309.031
  46  -1345.302
  47  -815.6655
  48  -1218.046
  49  -1627.56
  50  -1596.777
  51  -1691.495
  52  -1357.757
  53  -882.218
  54  -1189.51
  55  -1238.328
  56  -1795.538
  57  -1949.146
  58  -1755.829
  59  -1850.744
  60  -1655.779
  61  -1273.722
  62  -852.4329
  63  -1602.102
  64  -1658.067
  65  -1604.485
  66  -1350.462
  67  -1167.851
  68  -1788.048
  69  -2040.218
  70  -2068.43
  71  -1648.923
  72  -1810.866
  73  -1760.863
  74  -1163.982
  75  -937.7475
  76  -1073.284
  77  -1435.091
  78  -1074.229
  79  -1111.127
  80  -1077.995
  81  -955.8492
  82  -631.5502
  83  -612.5736
  84  -1666.921
  85  -2230.764
  86  -1890.172
  87  -1306.001
  88  -1470.11
  89  -1907.498
  90  -1870.655
  91  -1554.086
  92  -1359.853
  93  -1431.417
  94  -1086.843
  95  -866.2886
  96  -979.6746
  97  -1274.618
  98  -1650.648
  99  -1227.985
 100  -1149.596
 101  -1043.511
 102  -1258.913
 103  -805.3933
 104  -990.3949
 105  -1626.181
 106  -2256.335
 107  -1872.896
 108  -1152.981
 109  -1160.74
 110  -1346.184
 111  -906.1074
 112  -835.3737
 113  -1683.016
 114  -1842.275
 115  -1402.677
 116  -1532.398
 117  -938.501
 118  -1226.473
 119  -1473.246
 120  -1194.274
 121  -1598.059
 122  -1877.565
 123  -2044.172
 124  -1951.279
 125  -1631.457
 126  -1703.239
 127  -1410.203
 128  -797.1939
 129  -258.7804
 130  -1346.588
 131  -1616.158
 132  -1665.207
 133  -1471.793
 134  -1207.845
 135  -1266.129
 136  -885.1047
 137  -908.1987
 138  -879.0339
 139  -1567.219
 140  -1744.09
 141  -1680.358
 142  -1949.355
 143  -1586.125
 144  -1229.434
 145  -602.8611
 146  -983.7543
 147  -1268.422
 148  -850.6717
 149  -795.4581
 150  -1237.711
 151  -1490.543
 152  -1532.3
 153  -1141.266
 154  -1151.772
 155  -1293.662
 156  -1271.187
 157  -1464.351
 158  -1679.19
 159  -1927.461
 160  -1649.34
 161  -1495.059
 162  -1772.349
 163  -1510.155
 164  -1458.697
 165  -1021.891
 166  -902.6553
 167  -1707.493
 168  -2087.519
 169  -2333.192
 170  -2222.823
 171  -1940.383
 172  -2425.846
 173  -2144.91
 174  -1968.252
 175  -1904.34
 176  -1407.655
 177  -1692.926
 178  -1202.537
 179  -1758.607
 180  -1915.696
 181  -1985.815
 182  -1602.359
 183  -1740.538
 184  -1320.742
 185  -1269.509
 186  -1549.064
 187  -2021.505
 188  -2656.776
 189  -2473.697
 190  -2092.301
 191  -1340.478
 192  -1063.172
 193  -883.2775
 194  -765.5049
 195  -1337.654
 196  -2004.841
 197  -2214.703
 198  -1550.201
 199  -792.8587
 200  -883.0183
 201  -1269.952
 202  -1167.333
 203  -1170.514
 204  -2404.459
 205  -2290.935
 206  -2193.505
 207  -1997.624
 208  -1818.952
 209  -1859.976
 210  -809.7755
 211  -444.1937
 212  -1039.418
 213  -1984.251
 214  -1851.207
 215  -1822.205
 216  -1675.605
 217  -1743.223
 218  -1227.753
 219  -882.5631
 220  -1305.233
 221  -1647.661
 222  -2377.826
 223  -1862.856
 224  -1505.088
 225  -1540.959
 226  -1507.654
 227  -1057.355
 228  -1013.025
 229  -1482.185
 230  -1681.583
 231  -1637.463
 232  -1514.726
 233  -2153.638
 234  -2537.263
 235  -1930.564
 236  -1899.504
 237  -1784.004
 238  -2137.432
 239  -2080.976
 240  -1467.797
 241  -1338.891
 242  -1854.734
 243  -1273.992
 244  -1240.283
 245  -1694.661
 246  -1578.749
 247  -1404.402
 248  -1554.641
 249  -1445.779
 250  -1893.947
 251  -1988.372
 252  -1621.906
 253  -1873.781
 254  -2239.631
 255  -2509.718
 256  -2058.509
 257  -1537.733
 258  -1183.208
 259  -1411.273
 260  -1363.261
 261  -1731.781
 262  -2749.436
 263  -2393.098
 264  -1679.083
 265  -932.4057
 266  -1381.758
 267  -1737.601
 268  -2077.939
 269  -2489.805
 270  -2076.921
 271  -2467.439
 272  -1896.615
 273  -1791.667
 274  -1734.37
 275  -1748.774
 276  -1397.011
 277  -1250.544
 278  -1831.628
 279  -2218.757
 280  -1703.556
 281  -1392.094
 282  -1353.478
 283  -1596.836
 284  -1623.774
 285  -1654.357
 286  -1894.256
 287  -1769.375
 288  -1871.343
 289  -1951.939
 290  -2064.254
 291  -1939.513
 292  -1869.313
 293  -1235.935
 294  -1072.787
 295  -1804.723
 296  -2256.903
 297  -2000.646
 298  -1939.911
 299  -1757.499
 300  -1886.904
 301  -1715.867
 302  -1534.386
 303  -1974.395
 304  -2064.33
 305  -2264.585
 306  -2176.254
 307  -2367.57
 308  -2191.244
 309  -2058.707
 310  -1224.162
 311  -1196.468
 312  -1751.897
 313  -1834.718
 314  -1651.667
 315  -2118.455
 316  -2084.984
 317  -1640.841
 318  -1553.246
 319  -1895.096
 320  -1871.241
 321  -2438.78
 322  -2156.409
 323  -1879.541
 324  -2339.134
 325  -2358.051
 326  -1855.498
 327  -1289.177
 328  -1467.456
 329  -1856.639
 330  -1704.113
 331  -1433.76
 332  -1925.449
 333  -2175.358
 334  -1923.431
 335  -1666.878
 336  -2022.741
 337  -2412.454
 338  -2324.54
 339  -1657.4
 340  -1692.493
 341  -1811.667
 342  -1791.401
 343  -1679.32
 344  -1568.991
 345  -1738.119
 346  -1426.189
 347  -1398.689
 348  -1389.581
 349  -1536.684
 350  -1935.785
 351  -1699.346
 352  -1763.316
 353  -2403.934
 354  -2336.739
 355  -2241.824
 356  -1355.865
 357  -1260.438
 358  -1193.489
 359  -1155.637
 360  -1743.452
 361  -1880.137
 362  -1994.39
 363  -1563.88
 364  -935.1939
 365  -1020.904
 366  -1415.268
 367  -1399.956
 368  -1675.956
 369  -1693.574
 370  -1926.577
 371  -1797.445
 372  -1992.391
 373  -1424.274
 374  -1541.239
 375  -1487.87
 376  -820.0999
 377  -1008.351
 378  -1639.424
 379  -1952.34
 380  -1488.366
 381  -1453.03
 382  -1168.166
 383  -1201.939
 384  -1294.013
 385  -1158.271
 386  -1704.291
 387  -2075.277
 388  -1651.206
 389  -1639.406
 390  -1333.404
 391  -1307.251
 392  -524.8397
 393  -926.3489
 394  -1565.224
 395  -1962.689
 396  -1759.296
 397  -1160.995
 398  -2138.968
 399  -1843.783
 400  -1374.924
 401  -1262.512
 402  -1328.202
 403  -1779.643
 404  -1713.399
 405  -1357.411
 406  -1548.042
 407  -2019.557
 408  -1849.295
 409  -1362.359
 410  -1396.868
 411  -1544.949
 412  -1686.261
 413  -1195.444
 414  -1503.333
 415  -1993.059
 416  -2302.95
 417  -2143.03
 418  -1827.457
 419  -1836.02
 420  -1710.343
 421  -1285.812
 422  -1434.447
 423  -1889.894
 424  -1837.527
 425  -1676.673
 426  -1266.386
 427  -1340.045
 428  -1677.159
 429  -1348.514
 430  -1593.246
 431  -2019.527
 432  -1968.65
 433  -1664.584
 434  -1754.31
 435  -2038.838
 436  -2316.554
 437  -2043.564
 438  -1314.187
 439  -1652.529
 440  -1752.87
 441  -1414.631
 442  -1317.455
 443  -1352.013
 444  -1903.571
 445  -1862.353
 446  -1529.736
 447  -1111.435
 448  -1698.887
 449  -1931.774
 450  -1538.177
 451  -2004.719
 452  -2242.43
 453  -2361.407
 454  -2270.331
 455  -2148.89
 456  -1581.402
 457  -1344.984
 458  -1300.205
 459  -1058.862
 460  -1445.03
 461  -1945.452
 462  -1761.65
 463  -1428.74
 464  -1574.527
 465  -1737.872
 466  -1318.307
 467  -1237.702
 468  -1397.122
 469  -1623.905
 470  -1733.217
 471  -1727.345
 472  -1859.12
 473  -1656.361
 474  -1242.705
 475  -606.3307
 476  -617.5913
 477  -747.9371
 478  -980.7474
 479  -1168.42
 480  -1735.479
 481  -2088.626
 482  -2020.236
 483  -1136.555
 484  -972.3941
 485  -1531.318
 486  -2092.582
 487  -1392.329
 488  -1647.814
 489  -1849.91
 490  -1159.338
 491  -961.2332
 492  -492.9871
 493  -969.7144
 494  -891.9802
 495  -1243.925
 496  -1141.088
 497  -1321.554
 498  -1646.509
 499  -1717.637
 500  -1251.864
 501  -1398.244
 502  -1409.65
 503  -1985.917
 504  -1599.575
 505  -1135.214
 506  -1203.201
 507  -1196.351
 508  -1314.262
 509  -1305.242
 510  -1586.39
 511  -1305.926
