# Input file       =  1205913080.105604_cleaned.dat
# Candidate        =  PSR_0332+5434
# Telescope        =  AR
# Epoch_topo       =  58201.327535944489
# Epoch_bary       =  N/A
# T_sample         =  0.002
# Data Folded      =  7143424
# Data Avg         =  0.446888509579217
# Data StdDev      =  5.92331279084241 
# Profile Bins     =  512
# Profile Avg      =  6234.81448823597 
# Profile StdDev   =  699.653322297644 
# Reduced chi-sqr  =  2.053
# Prob(Noise)      <  2.23e-39   (~13.1 sigma)
# P_topo (ms)      =  714.573765920023  +/- 2.27e-05
# P'_topo (s/s)    =  -0                +/- 1.23e-11
# P''_topo (s/s^2) =  0                 +/- 5.59e-15
# P_bary (ms)      =  N/A
# P'_bary (s/s)    =  N/A
# P''_bary (s/s^2) =  N/A
# P_orb (s)        =  N/A
# asin(i)/c (s)    =  N/A
# eccentricity     =  N/A
# w (rad)          =  N/A
# T_peri           =  N/A
######################################################
   0  7839.875
   1  7904.962
   2  7523.753
   3  7715.809
   4  8510.058
   5  8885.175
   6  8549.772
   7  7229.708
   8  6469.35
   9  6257.671
  10  5694.688
  11  5666.959
  12  6242.412
  13  7133.997
  14  7202.88
  15  7206.845
  16  7138.059
  17  6616.786
  18  6339.295
  19  6387.646
  20  6503.057
  21  7061.221
  22  7333.517
  23  6404.559
  24  5952.407
  25  6103.272
  26  5960.242
  27  5700.018
  28  5643.35
  29  6761.667
  30  7516.726
  31  7640.351
  32  7277.028
  33  6903.207
  34  6737.975
  35  5939.831
  36  6200.117
  37  6287.725
  38  6720.167
  39  7019.634
  40  6280.95
  41  6020.626
  42  5972.463
  43  6079.788
  44  5869.385
  45  6434.919
  46  7249.833
  47  7460.966
  48  6962.292
  49  6783.471
  50  6706.876
  51  5962.575
  52  5928.181
  53  6196.775
  54  6722.68
  55  7284.736
  56  6540.256
  57  5991.462
  58  5757.209
  59  5494.992
  60  5206.227
  61  5842.583
  62  7120.705
  63  7778.104
  64  7595.751
  65  7012.647
  66  6840.747
  67  6528.238
  68  5978.247
  69  5902.57
  70  6446.886
  71  7481.955
  72  7513.174
  73  6986.386
  74  6207.699
  75  6096.278
  76  5633.854
  77  5379.299
  78  6415.862
  79  7727.688
  80  8279.221
  81  7431.387
  82  7011.347
  83  6802.483
  84  6351.698
  85  5853.295
  86  5759.398
  87  6877.261
  88  6979.538
  89  7036.836
  90  6781.984
  91  6425.648
  92  6448.22
  93  5654.24
  94  5778.327
  95  6916.397
  96  7653.666
  97  7798.666
  98  7196.356
  99  6941.016
 100  6599.32
 101  6584.228
 102  6096.606
 103  6420.812
 104  6852.133
 105  6989.738
 106  6581.449
 107  6079.429
 108  6392.342
 109  5563.72
 110  5487.422
 111  6169.69
 112  7250.651
 113  7635.207
 114  7258.687
 115  7096.784
 116  6715.406
 117  6668.846
 118  6092.421
 119  5830.782
 120  6361.786
 121  7012.067
 122  6415.603
 123  6087.439
 124  6091.955
 125  5983.806
 126  5721.708
 127  5887.478
 128  6757.116
 129  7737.528
 130  7447.855
 131  7012.409
 132  6653.812
 133  6073.184
 134  5796.047
 135  5742.442
 136  6417.798
 137  7183.069
 138  7174.696
 139  6531.375
 140  6171.436
 141  6197.509
 142  5904.951
 143  5816.758
 144  6229.658
 145  7346.906
 146  7856.934
 147  7187.715
 148  6566.348
 149  6475.363
 150  6375.667
 151  5828.105
 152  5973.655
 153  6300.642
 154  6805.745
 155  6596.475
 156  5870.179
 157  5463.752
 158  5265.853
 159  5249.059
 160  5375.572
 161  6198.157
 162  7184.196
 163  7052.253
 164  6427.685
 165  6296.714
 166  6140.806
 167  5643.652
 168  5623.335
 169  5842.423
 170  6149.729
 171  6344.406
 172  5813.989
 173  5303.581
 174  5433.473
 175  5304.775
 176  5515.39
 177  5703.985
 178  6797.72
 179  7081.834
 180  6614.407
 181  6138.938
 182  6273.763
 183  5960.092
 184  5652.228
 185  5521.907
 186  5851
 187  6382.567
 188  6130.32
 189  5742.099
 190  5420.523
 191  5871.347
 192  5129.098
 193  5271.707
 194  6084.639
 195  6624.489
 196  6521.674
 197  6356.8
 198  5920.913
 199  5988.175
 200  5631.252
 201  5423.56
 202  5463.889
 203  5961.203
 204  6221.046
 205  5817.085
 206  5685.491
 207  5064.511
 208  5181.062
 209  5076.52
 210  5408.104
 211  6626.789
 212  7327.157
 213  6653.646
 214  6161.728
 215  6039.949
 216  5565.47
 217  5863.319
 218  5612.687
 219  6260.774
 220  6617.471
 221  6435.362
 222  5477.228
 223  5375.445
 224  5398.725
 225  5514.695
 226  5653.443
 227  6772.046
 228  7566.498
 229  6798.371
 230  6351.256
 231  6374.323
 232  6209.148
 233  5686.314
 234  5488.538
 235  5567.658
 236  6144.659
 237  6076.053
 238  6206.856
 239  5950.723
 240  5349.665
 241  5288.004
 242  4674.96
 243  5291.379
 244  6763.329
 245  7237.226
 246  7114.087
 247  6727.833
 248  6113.532
 249  5917.382
 250  5480.617
 251  5790.547
 252  5671.817
 253  6278.856
 254  6338.045
 255  5963.077
 256  5620.742
 257  5476.483
 258  5054.071
 259  5045.223
 260  5939.218
 261  6451.708
 262  6762.557
 263  6513.948
 264  6362.346
 265  6145.949
 266  5525.703
 267  5861.592
 268  5687.195
 269  5911.936
 270  6485.539
 271  6321.442
 272  6040.528
 273  5979.084
 274  5730.916
 275  5423.06
 276  5583.338
 277  6526.055
 278  7370.927
 279  6991.1
 280  6728.203
 281  6602.523
 282  5876.475
 283  5787.829
 284  5706.242
 285  5960.914
 286  6052.688
 287  6082.504
 288  6165.086
 289  5851.035
 290  6380.659
 291  5791.569
 292  5599.572
 293  6451.935
 294  7130.572
 295  7194.37
 296  6399.969
 297  6671.722
 298  6475.013
 299  6471.195
 300  6116.521
 301  5903.375
 302  6406.361
 303  6977.437
 304  6511.233
 305  6215.847
 306  5717.547
 307  5264.121
 308  5429.429
 309  6413.593
 310  7306.897
 311  7520.487
 312  7068.827
 313  6919.06
 314  6370.247
 315  6405.657
 316  5890.714
 317  5943.796
 318  6252.411
 319  6730.138
 320  6978.617
 321  6210.358
 322  5985.579
 323  5766.101
 324  5589.017
 325  5629.453
 326  6705.285
 327  7787.532
 328  7240.662
 329  6783.948
 330  6535.111
 331  6360.236
 332  5943.928
 333  5440.699
 334  6099.164
 335  6581.45
 336  6641.415
 337  6593.891
 338  5747.961
 339  5738.443
 340  5365.876
 341  5267.981
 342  5617.998
 343  6435.318
 344  7014.736
 345  7059.592
 346  6892.748
 347  6385.253
 348  5782.017
 349  5466.383
 350  4884.898
 351  5345.955
 352  6396.255
 353  6068.317
 354  5852.273
 355  5893.734
 356  5521.121
 357  5178.269
 358  4798.066
 359  5410.234
 360  6458.757
 361  6964.652
 362  6751.656
 363  6691.396
 364  6507.332
 365  6008.014
 366  5668.968
 367  5460.925
 368  6191.211
 369  6514.043
 370  6390.588
 371  6231.294
 372  5862.417
 373  5598.955
 374  5276.179
 375  5221.564
 376  6034.133
 377  6738.933
 378  6851.083
 379  6451.886
 380  6585.327
 381  6356.702
 382  6066.805
 383  5721.055
 384  6084.455
 385  6792.178
 386  6364.621
 387  5940.423
 388  5810.09
 389  6000.056
 390  6196.559
 391  6006.928
 392  6940.644
 393  7331
 394  7341.458
 395  6797.333
 396  6436.857
 397  6146.507
 398  5536.895
 399  5423.889
 400  5917.053
 401  6702.847
 402  6861.27
 403  6655.533
 404  6325.37
 405  5518.076
 406  5293.899
 407  5129.245
 408  6069.563
 409  6732.94
 410  7382.972
 411  7071.338
 412  6377.56
 413  6178.571
 414  5873.378
 415  5430.11
 416  4996.812
 417  5709.214
 418  6573.057
 419  6499.661
 420  5795.158
 421  5419.192
 422  5103.452
 423  4355.654
 424  4250.093
 425  5372.862
 426  6516.484
 427  7190.04
 428  6792.806
 429  6455.996
 430  5805.821
 431  5022.08
 432  4453.45
 433  4581.732
 434  5733.391
 435  6400.671
 436  6278.565
 437  5719.072
 438  5033.195
 439  4638.895
 440  4273.341
 441  4886.669
 442  5821.317
 443  6610.021
 444  6722.251
 445  6302.934
 446  5838.529
 447  5521.564
 448  4818.348
 449  4795.211
 450  5327.076
 451  5760.475
 452  5972.793
 453  5391.346
 454  5323.756
 455  5305.858
 456  5012.051
 457  5080.877
 458  5661.311
 459  6456.342
 460  6616.393
 461  6480.13
 462  6148.459
 463  6138.708
 464  5618.699
 465  5350.17
 466  5587.922
 467  5938.356
 468  6144.836
 469  6029.84
 470  5435.851
 471  5259.201
 472  5299.498
 473  5018.669
 474  5513.177
 475  6165.966
 476  6775.331
 477  6726.394
 478  6431.365
 479  6698.747
 480  5920.879
 481  5688.137
 482  5457.882
 483  5723.348
 484  6306.078
 485  6283.51
 486  6471.541
 487  5758.395
 488  5422.729
 489  5179.054
 490  4900.894
 491  6340.385
 492  7585.403
 493  7736.8
 494  6712.67
 495  6867.995
 496  6416.542
 497  6189.86
 498  5849.054
 499  6317.298
 500  6959.96
 501  7699.587
 502  7385.972
 503  6713.753
 504  6494.235
 505  5789.411
 506  5584.888
 507  5796.575
 508  7079.58
 509  7996.97
 510  7928.801
 511  7993.468
