# Input file       =  1205568517.108477_cleaned.dat
# Candidate        =  PSR_0332+5434
# Telescope        =  AR
# Epoch_topo       =  58197.339538292559
# Epoch_bary       =  N/A
# T_sample         =  0.002
# Data Folded      =  7405568
# Data Avg         =  0.637976209244658
# Data StdDev      =  6.96449494499694 
# Profile Bins     =  1024
# Profile Avg      =  4613.83615725093 
# Profile StdDev   =  592.268774218967 
# Reduced chi-sqr  =  1.740
# Prob(Noise)      <  9.95e-44   (~13.8 sigma)
# P_topo (ms)      =  714.575575426386  +/- 2.09e-05
# P'_topo (s/s)    =  -0                +/- 1.09e-11
# P''_topo (s/s^2) =  0                 +/- 4.78e-15
# P_bary (ms)      =  N/A
# P'_bary (s/s)    =  N/A
# P''_bary (s/s^2) =  N/A
# P_orb (s)        =  N/A
# asin(i)/c (s)    =  N/A
# eccentricity     =  N/A
# w (rad)          =  N/A
# T_peri           =  N/A
######################################################
   0  4969.239
   1  4840.106
   2  4597.984
   3  4558.994
   4  4353.4
   5  3942.053
   6  4089.664
   7  4033.355
   8  4263.748
   9  4331.445
  10  4612.958
  11  4821.618
  12  4756.501
  13  4827.926
  14  4788.755
  15  4671.59
  16  4566.358
  17  4320.311
  18  4278.545
  19  4374.956
  20  4452.257
  21  4507.199
  22  4295.736
  23  4284.537
  24  4498.884
  25  4560.046
  26  4819.011
  27  5165.975
  28  5677.216
  29  5734.204
  30  5599.625
  31  5562.629
  32  5345.049
  33  4918.751
  34  4605.81
  35  4424.714
  36  4396.014
  37  4175.534
  38  4211.423
  39  4145.14
  40  4178.201
  41  4173.445
  42  4305.619
  43  4582.917
  44  4673.813
  45  4777.499
  46  4976.059
  47  4883.345
  48  4721.763
  49  4701.094
  50  4462.362
  51  4334.751
  52  4082.961
  53  4114.212
  54  4170.294
  55  4215.292
  56  4265.513
  57  4259.479
  58  4594.057
  59  4935.062
  60  5297.528
  61  5546.047
  62  5625.502
  63  5411.163
  64  5254.328
  65  4948.623
  66  4572.11
  67  4373.943
  68  4287.62
  69  4330.117
  70  4216.249
  71  4192.919
  72  4147.305
  73  4053.255
  74  4000.496
  75  4057.057
  76  4336.744
  77  4557.093
  78  4707.549
  79  4652.911
  80  4383.354
  81  4266.443
  82  4201.599
  83  3994.583
  84  4130.944
  85  3934.024
  86  4203.835
  87  4265.549
  88  4392.118
  89  4562.893
  90  4483.835
  91  4674.804
  92  4932.265
  93  5289.507
  94  5348.358
  95  5221.074
  96  5227.999
  97  5069.985
  98  4717.903
  99  4588.633
 100  4272.768
 101  4404.904
 102  4577.68
 103  4610.428
 104  4502.875
 105  4281.179
 106  4317.004
 107  4269.875
 108  4331.327
 109  4532.088
 110  4622.819
 111  4869.863
 112  4829.213
 113  4673.934
 114  4563.694
 115  4254.641
 116  4176.682
 117  4197.604
 118  4211.901
 119  4415.336
 120  4425.494
 121  4654.941
 122  4614.269
 123  4653.076
 124  4784.102
 125  4922.019
 126  5310.152
 127  5443.239
 128  5576.543
 129  5444.666
 130  5209.603
 131  4939.618
 132  4847.676
 133  4723.462
 134  4803.46
 135  4460.614
 136  4442.75
 137  4282.884
 138  4325.715
 139  4484.185
 140  4499.374
 141  4736.128
 142  4709.199
 143  4903.315
 144  5015.166
 145  5060.205
 146  5136.426
 147  4923.419
 148  4629.671
 149  4534.687
 150  4334.281
 151  4371.592
 152  4429.474
 153  4459.158
 154  4550.07
 155  4571.552
 156  4831.638
 157  4931.076
 158  4995.125
 159  5100.131
 160  5308.331
 161  5733.767
 162  5885.903
 163  5675.264
 164  5339.249
 165  4900.751
 166  4764.101
 167  4883.518
 168  4791.455
 169  4732.785
 170  4419.228
 171  4382.38
 172  4297.585
 173  4491.559
 174  4639.873
 175  4804.3
 176  5128.172
 177  5175.834
 178  5185.074
 179  5141.112
 180  5082.502
 181  4692.182
 182  4435.215
 183  4349.01
 184  4438.537
 185  4282.511
 186  4317.665
 187  4357.442
 188  4381.052
 189  4539.227
 190  4751.162
 191  5243.854
 192  5545.917
 193  5878.432
 194  6057.392
 195  5938.516
 196  5540.069
 197  5175.334
 198  4850.74
 199  4649.343
 200  4309.668
 201  4348.346
 202  4328.122
 203  4291.279
 204  4229.076
 205  4298.787
 206  4445.721
 207  4523.662
 208  4865.414
 209  5061.556
 210  5067.627
 211  5092.355
 212  5000.377
 213  4645.672
 214  4439.576
 215  4206.681
 216  4325.293
 217  4259.86
 218  4241.629
 219  4501.951
 220  4415.738
 221  4447.915
 222  4583.208
 223  4884.156
 224  5102.228
 225  5242.185
 226  5648.397
 227  5722.296
 228  5420.261
 229  5345.79
 230  4988.755
 231  4751.311
 232  4609.272
 233  4481.428
 234  4460.86
 235  4268.438
 236  4398.572
 237  4361.305
 238  4201.25
 239  4284.405
 240  4449.297
 241  4714.265
 242  4700.923
 243  4840.952
 244  5067.927
 245  5063.303
 246  4827.4
 247  4629.953
 248  4219.622
 249  4171.758
 250  4256.329
 251  4582.595
 252  4704.712
 253  4522.001
 254  4666.533
 255  4697.862
 256  4738.691
 257  4805.921
 258  5119.408
 259  5376.692
 260  5348.064
 261  5222.676
 262  5085.608
 263  4770.362
 264  4697.637
 265  4505.385
 266  4550.315
 267  4539.573
 268  4494.583
 269  4559.35
 270  4452.346
 271  4414.268
 272  4516.236
 273  4608.543
 274  4736.229
 275  4651.259
 276  4982.867
 277  5115.314
 278  4873.564
 279  4729.031
 280  4524.755
 281  4456.615
 282  4601.164
 283  4570.593
 284  4697.537
 285  4614.097
 286  4853.348
 287  4880.752
 288  4774.861
 289  4780.913
 290  4927.748
 291  5365.629
 292  5561.097
 293  5762.246
 294  5810.14
 295  5496.291
 296  5190.649
 297  5047.752
 298  4811.007
 299  4723.878
 300  4707.442
 301  4679.191
 302  4488.703
 303  4393.091
 304  4573.169
 305  4541.186
 306  4435.65
 307  4471.633
 308  4820.339
 309  5242.716
 310  5301.136
 311  5262.709
 312  4857.847
 313  4631.33
 314  4671.582
 315  4704.48
 316  4735.299
 317  4735.687
 318  4766.007
 319  4794.406
 320  4703.023
 321  4803.472
 322  4914.884
 323  5021.901
 324  5243.48
 325  5423.568
 326  5809.335
 327  5865.554
 328  5832.128
 329  5635.893
 330  5169.062
 331  4882.303
 332  4702.305
 333  4551.368
 334  4604.682
 335  4459.489
 336  4487.278
 337  4267.397
 338  4426.516
 339  4695.463
 340  4786.159
 341  5102.79
 342  5186.454
 343  5332.602
 344  5417.307
 345  5202.162
 346  4925.725
 347  4554.434
 348  4329.425
 349  4392.156
 350  4339.123
 351  4425.793
 352  4596.505
 353  4495.975
 354  4485.376
 355  4494.649
 356  5121.33
 357  5422.044
 358  5430.102
 359  5550.772
 360  5678.869
 361  5498.768
 362  5210.771
 363  4872.063
 364  4834.491
 365  4552.019
 366  4521.424
 367  4456.971
 368  4348.63
 369  4427.965
 370  4458.666
 371  4624.415
 372  4505.719
 373  4627.639
 374  4850.805
 375  4813.503
 376  4722.908
 377  4603.279
 378  4532.456
 379  4579.186
 380  4517.177
 381  4349.223
 382  4287.343
 383  4058.993
 384  4193.722
 385  4045.592
 386  4090.026
 387  4419.569
 388  4747.581
 389  4972.096
 390  5080.146
 391  5270.14
 392  5353.267
 393  5281.14
 394  5213.414
 395  4862.203
 396  4445.086
 397  4336.34
 398  4205.88
 399  4279.148
 400  4219.727
 401  4334.313
 402  4396.028
 403  4261.934
 404  4298.334
 405  4222.928
 406  4477.492
 407  4570.166
 408  4634.264
 409  4832.69
 410  4687.945
 411  4469.188
 412  4429.904
 413  4206.893
 414  4188.25
 415  4069.944
 416  4221.742
 417  4331.529
 418  4100.859
 419  4220.281
 420  4131.037
 421  4312.451
 422  4503.474
 423  4791.257
 424  5217.658
 425  5159.362
 426  5186.183
 427  5086.482
 428  4763.015
 429  4606.168
 430  4367.438
 431  4297.955
 432  4150.468
 433  4092.625
 434  4309.73
 435  4080.139
 436  3953.893
 437  3840.758
 438  4030.286
 439  4201.019
 440  4163.613
 441  4286.308
 442  4312.996
 443  4225.225
 444  4268.626
 445  4159.363
 446  4101.774
 447  4207.033
 448  4072.75
 449  3965.913
 450  3830.248
 451  4043.939
 452  4315.66
 453  4347.009
 454  4464.138
 455  4603.008
 456  5040.737
 457  5242.513
 458  5268.747
 459  5251.558
 460  4985.73
 461  4731.395
 462  4577.257
 463  4459.364
 464  4415.109
 465  4299.641
 466  4273.134
 467  4154.569
 468  4041.424
 469  4221.473
 470  4047.181
 471  4251.238
 472  4202.722
 473  4459.927
 474  4761.388
 475  4781.99
 476  4752.198
 477  4625.418
 478  4269.165
 479  3967.49
 480  3817.422
 481  3991.855
 482  4210.115
 483  4271.448
 484  4437.549
 485  4421.363
 486  4559.436
 487  4761.402
 488  5048.566
 489  5322.009
 490  5388.928
 491  5502.055
 492  5437.371
 493  5259.979
 494  4932.541
 495  4510.246
 496  4298.885
 497  4288.083
 498  4121.051
 499  4239.021
 500  4221.553
 501  4363.418
 502  4401.273
 503  4388.678
 504  4461.675
 505  4426.593
 506  4813.014
 507  5071.655
 508  5068.971
 509  5033.031
 510  4760.244
 511  4441.322
 512  4432.219
 513  4269.301
 514  4388.736
 515  4244.192
 516  4309.894
 517  4615.917
 518  4560.219
 519  4684.222
 520  4764.543
 521  5017.632
 522  5107.941
 523  5150.249
 524  5521.955
 525  5511.13
 526  5245.881
 527  5084.141
 528  4664.369
 529  4362.895
 530  4163.752
 531  4196.47
 532  4329.159
 533  4085.993
 534  4340.872
 535  4292.895
 536  4306.816
 537  4419.355
 538  4544.667
 539  4936.162
 540  4872.032
 541  4841.156
 542  4852.337
 543  4602.676
 544  4559.291
 545  4473.292
 546  4384.65
 547  4344.814
 548  4207.364
 549  4475.926
 550  4475.746
 551  4354.681
 552  4716.918
 553  4724.21
 554  4940.503
 555  4925.934
 556  5472.568
 557  5794.107
 558  5743.997
 559  5501.518
 560  5228.341
 561  4739.167
 562  4677.111
 563  4513.593
 564  4524.128
 565  4432.771
 566  4436.702
 567  4504.504
 568  4313.159
 569  4382.346
 570  4502.875
 571  4678.226
 572  4627.914
 573  4608.299
 574  4918.066
 575  4992.731
 576  4855.939
 577  4851.433
 578  4405.71
 579  4277.231
 580  4320.311
 581  4398.236
 582  4498.642
 583  4197.174
 584  4370.181
 585  4387.161
 586  4629.794
 587  4825.607
 588  5005.106
 589  5322.323
 590  5582.245
 591  5425.949
 592  5218.827
 593  4787.521
 594  4875.192
 595  4972.924
 596  4785.354
 597  4545.175
 598  4334.294
 599  4530.238
 600  4549.225
 601  4535.802
 602  4621.997
 603  4696.019
 604  5178.045
 605  5406.935
 606  5616.958
 607  5633.528
 608  5513.153
 609  5349.109
 610  5156.572
 611  4905.74
 612  4893.546
 613  4606.457
 614  4560.378
 615  4437.918
 616  4583.849
 617  4794.771
 618  4711.345
 619  4778.543
 620  4885.824
 621  5213.251
 622  5427.007
 623  5338.567
 624  5275.478
 625  5015.511
 626  4860.113
 627  4688.317
 628  4484.435
 629  4428.114
 630  4507.198
 631  4552.959
 632  4606.024
 633  4405.931
 634  4384.77
 635  4330.615
 636  4438.572
 637  4486.355
 638  4416.776
 639  4761.054
 640  4809.021
 641  4786.246
 642  4774.963
 643  4545.372
 644  4361.999
 645  4311.509
 646  4063.708
 647  4188.337
 648  4038.296
 649  4253.009
 650  4267.353
 651  4280.627
 652  4511.36
 653  4783.639
 654  5316.151
 655  5573.383
 656  5471.6
 657  5564.918
 658  5424.869
 659  5152.454
 660  4722.163
 661  4372.097
 662  4395.08
 663  4212.487
 664  4219.16
 665  4350.855
 666  4234.455
 667  4442.371
 668  4456.368
 669  4760.064
 670  4623.711
 671  4568.862
 672  4760.121
 673  4839.195
 674  4984.549
 675  4962.732
 676  4663.445
 677  4392.444
 678  4043.09
 679  3975.879
 680  4262.446
 681  4271.926
 682  4807.74
 683  4700.243
 684  4715.92
 685  4715.584
 686  4941.47
 687  5195.907
 688  5171.153
 689  5391.329
 690  5480.854
 691  5128.522
 692  5072.361
 693  4869.897
 694  4610.354
 695  4495.369
 696  4281.072
 697  4567.697
 698  4329.772
 699  4364.327
 700  4403.601
 701  4343.201
 702  4278.71
 703  4245.076
 704  4653.526
 705  4816.075
 706  4750.578
 707  4959.066
 708  4822.424
 709  4664.225
 710  4478.804
 711  4170.039
 712  4260.229
 713  4213.124
 714  4353.297
 715  4325.463
 716  4156.126
 717  4415.97
 718  4635.39
 719  5066.355
 720  5182.966
 721  5306.873
 722  5569.401
 723  5502.057
 724  5245.54
 725  5125.993
 726  4665.028
 727  4569.781
 728  4497.367
 729  4660.156
 730  4520.134
 731  4212.89
 732  4326.212
 733  4186.053
 734  4319.92
 735  4274.095
 736  4317.019
 737  4475.215
 738  4428.772
 739  4545.51
 740  4617.664
 741  4372.996
 742  4365.654
 743  4139.541
 744  4223.663
 745  4335.799
 746  4291.518
 747  4413.643
 748  4400.174
 749  4298.521
 750  4202.209
 751  4155.529
 752  4482.627
 753  4644.498
 754  5055.883
 755  5392.181
 756  5480.799
 757  5396.024
 758  5077.106
 759  4780.466
 760  4653.068
 761  4389.346
 762  4399.563
 763  4173.996
 764  4182.761
 765  4227.909
 766  4157.752
 767  4285.709
 768  4280.32
 769  4625.788
 770  4483.161
 771  4368.052
 772  4567.802
 773  4611.242
 774  4630.414
 775  4584.312
 776  4351.642
 777  4146.655
 778  4126.88
 779  4216.908
 780  4426.903
 781  4303.862
 782  4438.326
 783  4312.886
 784  4382.061
 785  4537.245
 786  4800.6
 787  5289.249
 788  5398.262
 789  5388.748
 790  5225.881
 791  4908.33
 792  4751.459
 793  4513.699
 794  4251.759
 795  4160.733
 796  4063.841
 797  4328.912
 798  4383.322
 799  4402.177
 800  4398.964
 801  4318.923
 802  4500.726
 803  4642.146
 804  4919.146
 805  4932.949
 806  4688.935
 807  4569.402
 808  4435.299
 809  4254.955
 810  4298.913
 811  4070.521
 812  4291.905
 813  4195.341
 814  4178.166
 815  4443.179
 816  4516.176
 817  4709.006
 818  4692.954
 819  5082.957
 820  5323.322
 821  5332.72
 822  5474.806
 823  5262.611
 824  4789.161
 825  4644.56
 826  4493.783
 827  4381.971
 828  4306.032
 829  4330.401
 830  4422.404
 831  4154.729
 832  4114.646
 833  4166.248
 834  4322.164
 835  4607.784
 836  4773.88
 837  4996.516
 838  4784.522
 839  4570.151
 840  4493.265
 841  4107.084
 842  3938.277
 843  4038.726
 844  3970.208
 845  4048.875
 846  3921.942
 847  4382.981
 848  4357.322
 849  4427.663
 850  4789.335
 851  4991.374
 852  5285.316
 853  5357.799
 854  5487.103
 855  5460.109
 856  5366.879
 857  5213.057
 858  4808.636
 859  4254.771
 860  4239.185
 861  4191.267
 862  4192.185
 863  4076.811
 864  4121.859
 865  4262.864
 866  4191.015
 867  4389.59
 868  4422.831
 869  4518.793
 870  4626.591
 871  4675.292
 872  4861.478
 873  4585.178
 874  4279.281
 875  4261.975
 876  4011.765
 877  4017.83
 878  4095.786
 879  3959.236
 880  4013.751
 881  3890.261
 882  4264.931
 883  4181.294
 884  4316.805
 885  4723.81
 886  4969.734
 887  5181.51
 888  5148.937
 889  5124.252
 890  4978.917
 891  4560.412
 892  4371.159
 893  4336.213
 894  4040.969
 895  3953.626
 896  3781.821
 897  3919.784
 898  3704.664
 899  3807.08
 900  3949.866
 901  3982.875
 902  4329.664
 903  4498.908
 904  4611.038
 905  4599.172
 906  4445.662
 907  4310.654
 908  4136.622
 909  3837.277
 910  3945.999
 911  3794.25
 912  4065.425
 913  4000.012
 914  3960.936
 915  4008.477
 916  3944.454
 917  4185.859
 918  4332.987
 919  4579.892
 920  4909.188
 921  4999.443
 922  4984.72
 923  4815.204
 924  4660.87
 925  4552.087
 926  4150.493
 927  4076.718
 928  4019.556
 929  3895.594
 930  3867.481
 931  3714.957
 932  3738.874
 933  3725.053
 934  3950.487
 935  4133.687
 936  4045.464
 937  4318.266
 938  4459.155
 939  4370.195
 940  4185.866
 941  3902.342
 942  3968.93
 943  4017.271
 944  3951.11
 945  4101.33
 946  3955.565
 947  3903.021
 948  3974.939
 949  4299.497
 950  4527.172
 951  4466.902
 952  4861.458
 953  5173.286
 954  5189.014
 955  5106.47
 956  4738.829
 957  4385.287
 958  4144.292
 959  4008.05
 960  4176.126
 961  4030.331
 962  4046.921
 963  4016.269
 964  3978.82
 965  3929.685
 966  3882.398
 967  4134.944
 968  4320.509
 969  4505.638
 970  4658.964
 971  4519.567
 972  4240.927
 973  4129.316
 974  3914.669
 975  3993.421
 976  3915.88
 977  4020.437
 978  4120.036
 979  4055.151
 980  4397.435
 981  4353.558
 982  4325.651
 983  4540.125
 984  4948.313
 985  5178.484
 986  5091.708
 987  5138.435
 988  5131.8
 989  4836.543
 990  4656.904
 991  4570.248
 992  4468.458
 993  4418.669
 994  4222.5
 995  4399.812
 996  4221.757
 997  4286.109
 998  4245.002
 999  4171.554
1000  4242.757
1001  4312.12
1002  4632.379
1003  4797.094
1004  4517.369
1005  4688.034
1006  4430.334
1007  4244.274
1008  4142.779
1009  4119.464
1010  4331.684
1011  4162.914
1012  4313.173
1013  4459.87
1014  4441.973
1015  4581.052
1016  4734.027
1017  5016.57
1018  5152.672
1019  5224.328
1020  5492.926
1021  5331.399
1022  5132.943
1023  5207.52
