# Input file       =  1205669230.121051_cleaned.dat
# Candidate        =  PSR_0332+5434
# Telescope        =  AR
# Epoch_topo       =  58198.505198160310
# Epoch_bary       =  N/A
# T_sample         =  0.002
# Data Folded      =  7340032
# Data Avg         =  0.249083744559486
# Data StdDev      =  5.76624677403949 
# Profile Bins     =  256
# Profile Avg      =  7140.6188947182  
# Profile StdDev   =  976.387517589564 
# Reduced chi-sqr  =  1.969
# Prob(Noise)      <  2.64e-18   (~8.6 sigma)
# P_topo (ms)      =  714.575088456813  +/- 0.000235
# P'_topo (s/s)    =  -0                +/- 1.24e-10
# P''_topo (s/s^2) =  0                 +/- 5.46e-14
# P_bary (ms)      =  N/A
# P'_bary (s/s)    =  N/A
# P''_bary (s/s^2) =  N/A
# P_orb (s)        =  N/A
# asin(i)/c (s)    =  N/A
# eccentricity     =  N/A
# w (rad)          =  N/A
# T_peri           =  N/A
######################################################
   0  8515.29
   1  8686.941
   2  7871.135
   3  7522.036
   4  7264.214
   5  7382.167
   6  7058.918
   7  6510.058
   8  5835.255
   9  6134.179
  10  5790.694
  11  5922.555
  12  6261.629
  13  6299.447
  14  6858.813
  15  7577.658
  16  7475.314
  17  7504.316
  18  6802.983
  19  7163.366
  20  7129.191
  21  8182.625
  22  7969.19
  23  7480.962
  24  7311.168
  25  8352.294
  26  8342.326
  27  7308.716
  28  6988.404
  29  7996.037
  30  8031.115
  31  7803.993
  32  8158.192
  33  8094.976
  34  8612.577
  35  8386.485
  36  8147.796
  37  7235.687
  38  8265.75
  39  7535.313
  40  6546.923
  41  7030.175
  42  7235.2
  43  6721.212
  44  6160.145
  45  6273.279
  46  6310.051
  47  5114.564
  48  5217.675
  49  5694.912
  50  5562.214
  51  5686.591
  52  5960.533
  53  6001.086
  54  5989.835
  55  5753.503
  56  6655.613
  57  6391.816
  58  5797.302
  59  5960.136
  60  6255.06
  61  5636.35
  62  6121.524
  63  6887.768
  64  6666.452
  65  6808.888
  66  7030.482
  67  7587.472
  68  8360.654
  69  7133.608
  70  8071.726
  71  8062.051
  72  7828.044
  73  8375.508
  74  7862.75
  75  6736.152
  76  5157.869
  77  5343.432
  78  5016.633
  79  5998.547
  80  5049.052
  81  4929.41
  82  4886.374
  83  5235.638
  84  5264.6
  85  5491.611
  86  5410.429
  87  5206.72
  88  5059.93
  89  5488.868
  90  6300.24
  91  5807.242
  92  5215.864
  93  5660.55
  94  5702.247
  95  5885.775
  96  6065.205
  97  6497.316
  98  5721.645
  99  7229.233
 100  8100.25
 101  7808.938
 102  7856.452
 103  8766.504
 104  9314.501
 105  8333.477
 106  9023.08
 107  9164.679
 108  8559.911
 109  8820.228
 110  8994.605
 111  9136.649
 112  9128.899
 113  7949.082
 114  8101.53
 115  7913.127
 116  7427.431
 117  7347.168
 118  7716.686
 119  8090.813
 120  7627.585
 121  7236.281
 122  7229.134
 123  7188.719
 124  7499.425
 125  6726.708
 126  7034.061
 127  6547.088
 128  7804.702
 129  7686.628
 130  7501.758
 131  7289.486
 132  7488.315
 133  7907.042
 134  7271.13
 135  6524.072
 136  7246.405
 137  8026.147
 138  7674.59
 139  7945.396
 140  7291.891
 141  9031.325
 142  9246.525
 143  9042.324
 144  8139.479
 145  8602.922
 146  8824.105
 147  8242.526
 148  7970.172
 149  8544.898
 150  9140.542
 151  10778.58
 152  10100.29
 153  8451.781
 154  7071.875
 155  7195.897
 156  7530.433
 157  7573.346
 158  8120.533
 159  6829.597
 160  6074.133
 161  6553.109
 162  6255.974
 163  5995.503
 164  6000.001
 165  6976.776
 166  7435.351
 167  7010.666
 168  6284.651
 169  7520.446
 170  7595.672
 171  6837.518
 172  7304.828
 173  7205.586
 174  7809.506
 175  7590.509
 176  7573.148
 177  7105.206
 178  7498.924
 179  6578.671
 180  7590.339
 181  8055.291
 182  7990.577
 183  7119.998
 184  7320.155
 185  7532.919
 186  7153.396
 187  6443.014
 188  5669.074
 189  5825.248
 190  5655.87
 191  4991.299
 192  5061.67
 193  5373.054
 194  5261.944
 195  5307.556
 196  5510.082
 197  5938.797
 198  6160.931
 199  6819.159
 200  6468.787
 201  7223.04
 202  6872.698
 203  7502.941
 204  7335.884
 205  7575.856
 206  7589.144
 207  8118.223
 208  8406.938
 209  7449.644
 210  7698.386
 211  8732.36
 212  8441.167
 213  8902.409
 214  8749.974
 215  9032.157
 216  9302.839
 217  8780.176
 218  8474.771
 219  8223.74
 220  8439.186
 221  7212.125
 222  6654.451
 223  8077.341
 224  7018.913
 225  6049.176
 226  5955.632
 227  5340.517
 228  4780.52
 229  4967.045
 230  5568.327
 231  6224.605
 232  5103.794
 233  5547.251
 234  5814.396
 235  5929.05
 236  5087.789
 237  5283.343
 238  6137.958
 239  6049.352
 240  6501.337
 241  6441.16
 242  7447.909
 243  7697.471
 244  7624.018
 245  8064.85
 246  7994.811
 247  7826.838
 248  7502.996
 249  7426.164
 250  8494.854
 251  8578.641
 252  8883.584
 253  9148.937
 254  9452.572
 255  9184.672
