# Input file       =  1205411064.114981_cleaned.dat
# Candidate        =  PSR_0332+5434
# Telescope        =  AR
# Epoch_topo       =  58195.517165682650
# Epoch_bary       =  N/A
# T_sample         =  0.002
# Data Folded      =  7340032
# Data Avg         =  0.0521495570761292
# Data StdDev      =  6.32756025213608 
# Profile Bins     =  512
# Profile Avg      =  747.396571991011 
# Profile StdDev   =  757.618001845189 
# Reduced chi-sqr  =  0.781
# Prob(Noise)      <  1   (~0.0 sigma)
# P_topo (ms)      =  714.57633755042   +/- 0.000736
# P'_topo (s/s)    =  -0                +/- 3.88e-10
# P''_topo (s/s^2) =  0                 +/- 1.71e-13
# P_bary (ms)      =  N/A
# P'_bary (s/s)    =  N/A
# P''_bary (s/s^2) =  N/A
# P_orb (s)        =  N/A
# asin(i)/c (s)    =  N/A
# eccentricity     =  N/A
# w (rad)          =  N/A
# T_peri           =  N/A
######################################################
   0  491.8485
   1  679.4379
   2  786.0479
   3  481.3662
   4  560.4834
   5  700.8203
   6  714.1542
   7  759.7928
   8  674.7628
   9  444.1844
  10  605.5259
  11  383.1256
  12  670.9719
  13  1013.696
  14  1168.618
  15  568.0151
  16  504.4442
  17  329.9265
  18  693.1224
  19  892.3069
  20  778.8165
  21  1061.014
  22  1160.546
  23  968.2179
  24  1165.693
  25  1079.56
  26  1195.749
  27  1565.546
  28  1395.023
  29  1095.078
  30  725.0609
  31  915.3568
  32  1160.419
  33  1356.171
  34  770.0471
  35  724.4822
  36  1127.539
  37  764.429
  38  889.0873
  39  777.3032
  40  731.6393
  41  1189.706
  42  1021.116
  43  497.2112
  44  451.7181
  45  582.8615
  46  588.0738
  47  794.4753
  48  1160.872
  49  1139.632
  50  842.4158
  51  695.8887
  52  1037.11
  53  536.9453
  54  434.6663
  55  315.2932
  56  480.2723
  57  637.4917
  58  648.4766
  59  728.1146
  60  379.3613
  61  487.0715
  62  641.0929
  63  591.4801
  64  349.9517
  65  759.9572
  66  763.9492
  67  242.9395
  68  40.60549
  69  364.9135
  70  501.442
  71  447.6625
  72  517.4173
  73  537.1004
  74  823.3929
  75  619.3268
  76  716.1059
  77  685.8273
  78  343.9247
  79  233.3572
  80  373.8388
  81  535.3505
  82  549.9922
  83  627.3151
  84  795.4391
  85  532.9818
  86  320.9779
  87  467.0252
  88  533.0564
  89  523.1934
  90  571.9522
  91  312.5417
  92  323.0128
  93  221.2647
  94  -484.6591
  95  -247.9288
  96  294.8752
  97  -411.4862
  98  -110.2531
  99  175.2009
 100  404.9609
 101  424.1995
 102  574.8416
 103  543.4719
 104  614.7686
 105  731.9203
 106  682.9009
 107  929.9807
 108  816.5872
 109  591.3513
 110  487.3849
 111  552.9691
 112  641.4006
 113  1050.869
 114  798.2798
 115  891.5071
 116  829.0621
 117  914.3495
 118  772.3906
 119  634.3528
 120  457.6397
 121  379.6524
 122  475.2625
 123  488.9296
 124  723.9796
 125  466.8658
 126  320.2628
 127  603.1019
 128  855.7661
 129  1203.445
 130  825.4106
 131  1130.401
 132  935.4711
 133  313.9145
 134  723.4976
 135  1136.967
 136  1034.081
 137  1020.176
 138  983.3
 139  766.4459
 140  598.637
 141  484.2499
 142  -158.0893
 143  -46.37536
 144  524.8484
 145  177.6096
 146  -292.8414
 147  -326.5776
 148  -178.4743
 149  -369.6186
 150  29.21708
 151  -305.7792
 152  -674.6533
 153  -69.09112
 154  -181.6535
 155  145.5145
 156  112.8225
 157  193.7289
 158  198.5342
 159  -98.85067
 160  -73.12261
 161  38.74415
 162  106.7638
 163  -286.6183
 164  -153.0057
 165  44.53557
 166  260.2029
 167  252.1281
 168  17.8882
 169  61.17982
 170  85.40987
 171  -95.08507
 172  367.5514
 173  70.42732
 174  -27.06284
 175  -97.77866
 176  107.7579
 177  345.0415
 178  580.3293
 179  577.6028
 180  647.0084
 181  262.6111
 182  31.11892
 183  25.5395
 184  227.3703
 185  558.6569
 186  684.301
 187  655.6227
 188  352.0886
 189  29.00872
 190  420.0476
 191  486.8045
 192  162.427
 193  86.68154
 194  606.2368
 195  608.3835
 196  678.5813
 197  841.2354
 198  960.8022
 199  677.8555
 200  314.9996
 201  986.1008
 202  706.4627
 203  481.1741
 204  527.2961
 205  667.5696
 206  738.7602
 207  637.4185
 208  581.7076
 209  427.5251
 210  289.7244
 211  444.9016
 212  444.9971
 213  485.6248
 214  338.2461
 215  460.6457
 216  465.192
 217  553.7531
 218  731.067
 219  783.528
 220  917.1997
 221  729.843
 222  607.9061
 223  424.8521
 224  515.7698
 225  685.5049
 226  1210.53
 227  1680.151
 228  1511.799
 229  1224.925
 230  1174.754
 231  1315.115
 232  1053.214
 233  1166.937
 234  1225.798
 235  1173.442
 236  950.4679
 237  1342.508
 238  1268.839
 239  1055.065
 240  992.8652
 241  972.9232
 242  950.5881
 243  1132.825
 244  887.4827
 245  992.6041
 246  911.7897
 247  1013.955
 248  1179.287
 249  1301.312
 250  1290.912
 251  1415.743
 252  1589.474
 253  1501.24
 254  1614.778
 255  1713.055
 256  1610.909
 257  1029.377
 258  1178.258
 259  1019.222
 260  1023.491
 261  1083.087
 262  1029.75
 263  789.9633
 264  745.7351
 265  648.0121
 266  409.2186
 267  432.6713
 268  480.7169
 269  546.4279
 270  452.7846
 271  532.4191
 272  809.4441
 273  803.4074
 274  898.6133
 275  577.8864
 276  857.0693
 277  1133.399
 278  1118.688
 279  928.408
 280  847.626
 281  1104.848
 282  1497.433
 283  1571.856
 284  1487.629
 285  1031.395
 286  1216.592
 287  1200.98
 288  1123.884
 289  837.9395
 290  695.2535
 291  861.9162
 292  998.8127
 293  857.6819
 294  1349.036
 295  1260.575
 296  1298.139
 297  1317.035
 298  996.1204
 299  1375.07
 300  1228.974
 301  1461.021
 302  2386.052
 303  2557.342
 304  2669.136
 305  2684.111
 306  1983.796
 307  919.4202
 308  944.1666
 309  928.252
 310  996.3387
 311  1120.186
 312  697.9031
 313  341.3334
 314  608.3904
 315  811.5439
 316  740.5125
 317  539.6767
 318  480.0973
 319  602.7781
 320  615.5353
 321  500.2738
 322  545.306
 323  125.1865
 324  -16.15543
 325  635.8353
 326  1237.806
 327  852.1765
 328  967.4952
 329  776.992
 330  474.0409
 331  879.2504
 332  764.9109
 333  758.5103
 334  705.3375
 335  767.288
 336  846.6293
 337  528.5245
 338  851.7361
 339  1314.47
 340  794.7514
 341  460.906
 342  556.9054
 343  832.9524
 344  789.4601
 345  441.721
 346  406.9898
 347  293.2253
 348  352.711
 349  511.9231
 350  550.8904
 351  517.051
 352  741.4795
 353  657.9036
 354  277.3251
 355  261.0424
 356  326.7442
 357  858.4079
 358  133.8152
 359  304.1436
 360  482.8098
 361  698.0774
 362  890.6447
 363  1015.408
 364  967.1895
 365  471.8197
 366  109.3947
 367  2.56406
 368  249.3459
 369  652.3641
 370  590.0189
 371  661.4712
 372  823.6089
 373  901.2034
 374  717.9448
 375  645.7166
 376  790.0447
 377  976.2117
 378  904.0981
 379  1216.945
 380  1500.88
 381  772.7582
 382  581.6867
 383  682.9965
 384  848.3593
 385  961.4811
 386  1288.856
 387  1315.25
 388  1030.196
 389  807.5901
 390  1006.729
 391  1355.431
 392  1308.899
 393  1045.267
 394  1170.38
 395  1148.909
 396  1189.518
 397  1309.826
 398  1635.672
 399  1953.683
 400  1881.709
 401  1539.853
 402  1628.455
 403  1322.681
 404  1176.304
 405  1403.411
 406  1561.218
 407  1471.492
 408  1492.993
 409  1709.427
 410  1495.682
 411  1228.746
 412  1152.842
 413  1318.031
 414  1303.209
 415  1073.895
 416  1425.619
 417  1623.46
 418  1537.044
 419  1435.656
 420  1694.446
 421  1615.025
 422  1445.214
 423  1201.299
 424  1561.025
 425  1694.901
 426  1378.802
 427  1512.673
 428  1266.143
 429  1128.861
 430  1272.849
 431  745.024
 432  961.9264
 433  1116.931
 434  881.7841
 435  974.0665
 436  1319.816
 437  1250.426
 438  887.6364
 439  619.5306
 440  678.7102
 441  768.1118
 442  506.6058
 443  558.8287
 444  407.7433
 445  256.7068
 446  316.788
 447  5.371442
 448  -90.28604
 449  -18.2464
 450  -314.3129
 451  -175.7835
 452  -211.425
 453  -16.21558
 454  -72.36959
 455  -149.9897
 456  194.5758
 457  518.1277
 458  557.2364
 459  427.2684
 460  474.1846
 461  963.4647
 462  579.5076
 463  504.2126
 464  395.1398
 465  685.1487
 466  1300.215
 467  1565.095
 468  1539.537
 469  1521.8
 470  1319.907
 471  951.8228
 472  1229.316
 473  1511.074
 474  1479.535
 475  1426.556
 476  1135.941
 477  1182.97
 478  1117.774
 479  1324.356
 480  1602.41
 481  1383.629
 482  1340.343
 483  946.5125
 484  705.1082
 485  910.7791
 486  905.7754
 487  652.3118
 488  415.6719
 489  515.5474
 490  909.6119
 491  606.7629
 492  756.227
 493  633.1835
 494  397.0835
 495  289.9395
 496  702.3817
 497  561.6929
 498  62.42379
 499  251.6288
 500  325.6911
 501  -101.6298
 502  -128.9605
 503  232.5704
 504  463.4076
 505  427.7401
 506  519.2519
 507  496.0562
 508  308.6228
 509  428.422
 510  642.1776
 511  481.9721
