# Input file       =  1205684143.112546_cleaned.dat
# Candidate        =  PSR_0332+5434
# Telescope        =  AR
# Epoch_topo       =  58198.677802228543
# Epoch_bary       =  N/A
# T_sample         =  0.002
# Data Folded      =  7340032
# Data Avg         =  0.104089985323153
# Data StdDev      =  1.00017794788617 
# Profile Bins     =  512
# Profile Avg      =  1492.15401231261 
# Profile StdDev   =  119.754342617494 
# Reduced chi-sqr  =  1.600
# Prob(Noise)      <  1.48e-16   (~8.2 sigma)
# P_topo (ms)      =  714.575346773268  +/- 0.000329
# P'_topo (s/s)    =  -0                +/- 1.74e-10
# P''_topo (s/s^2) =  0                 +/- 7.67e-14
# P_bary (ms)      =  N/A
# P'_bary (s/s)    =  N/A
# P''_bary (s/s^2) =  N/A
# P_orb (s)        =  N/A
# asin(i)/c (s)    =  N/A
# eccentricity     =  N/A
# w (rad)          =  N/A
# T_peri           =  N/A
######################################################
   0  2138.98
   1  2088.202
   2  1901.161
   3  1818.759
   4  1711.686
   5  1683.825
   6  1648.497
   7  1711.892
   8  1660.065
   9  1717.096
  10  1645.094
  11  1648.331
  12  1623.493
  13  1584.761
  14  1600.344
  15  1636.024
  16  1597.034
  17  1644.76
  18  1767.001
  19  1663.23
  20  1551.227
  21  1573.14
  22  1467.878
  23  1526.849
  24  1593.53
  25  1698.534
  26  1716.621
  27  1662.286
  28  1600.585
  29  1586.62
  30  1599.256
  31  1651.879
  32  1696.438
  33  1623.51
  34  1580.989
  35  1511.546
  36  1518.117
  37  1549.025
  38  1552.211
  39  1533.742
  40  1607.458
  41  1567.182
  42  1499.102
  43  1534.142
  44  1501.355
  45  1535.462
  46  1464.882
  47  1405.721
  48  1380.176
  49  1459.111
  50  1494.436
  51  1472.845
  52  1495.898
  53  1490.748
  54  1476.546
  55  1497.363
  56  1466.8
  57  1471.609
  58  1485.35
  59  1446.904
  60  1539.665
  61  1415.44
  62  1360.588
  63  1507.073
  64  1413.984
  65  1439.347
  66  1551.986
  67  1489.464
  68  1432.221
  69  1396.754
  70  1355.633
  71  1375.735
  72  1412.4
  73  1418.652
  74  1503.571
  75  1437.022
  76  1401.594
  77  1402.263
  78  1518.947
  79  1503.429
  80  1431.64
  81  1500.15
  82  1547.689
  83  1440.392
  84  1413.354
  85  1453.373
  86  1473.761
  87  1499.208
  88  1432.027
  89  1378.025
  90  1485.237
  91  1536.138
  92  1613.494
  93  1554.449
  94  1616.657
  95  1677.017
  96  1510.653
  97  1471.145
  98  1491.681
  99  1583.571
 100  1733.367
 101  1688.975
 102  1686.923
 103  1634.019
 104  1555.797
 105  1585.693
 106  1550.571
 107  1525.104
 108  1547.077
 109  1545.654
 110  1554.41
 111  1563.701
 112  1556.831
 113  1538.476
 114  1530.891
 115  1511.467
 116  1529.758
 117  1542.011
 118  1613.895
 119  1512.273
 120  1439.843
 121  1468.084
 122  1336.301
 123  1272.197
 124  1331.083
 125  1400.887
 126  1391.822
 127  1450.197
 128  1455.584
 129  1531.749
 130  1506.616
 131  1395.631
 132  1331.123
 133  1473.498
 134  1537.011
 135  1443.691
 136  1408.681
 137  1281.187
 138  1404.468
 139  1413.656
 140  1411.155
 141  1502.433
 142  1428.317
 143  1327.213
 144  1454.685
 145  1468.258
 146  1388.411
 147  1391.48
 148  1370.054
 149  1450.425
 150  1425.579
 151  1389.011
 152  1408.756
 153  1416.646
 154  1332.14
 155  1274.946
 156  1422.133
 157  1517.766
 158  1446.166
 159  1380.743
 160  1339.124
 161  1432.809
 162  1476.886
 163  1448.739
 164  1438.348
 165  1446.886
 166  1453.855
 167  1428.377
 168  1476.559
 169  1556.052
 170  1504.702
 171  1596.048
 172  1516.529
 173  1415.371
 174  1452.494
 175  1530.562
 176  1560.477
 177  1519.833
 178  1563.651
 179  1581.687
 180  1478.78
 181  1472.245
 182  1482.428
 183  1524.977
 184  1527.113
 185  1534.844
 186  1555.619
 187  1579.291
 188  1539.804
 189  1412.937
 190  1441.671
 191  1457.281
 192  1454.718
 193  1427.351
 194  1473.901
 195  1522.881
 196  1518.654
 197  1541.231
 198  1509.432
 199  1464.003
 200  1468.714
 201  1560.671
 202  1577.79
 203  1562.775
 204  1574.187
 205  1583.097
 206  1528.545
 207  1444.135
 208  1513.655
 209  1517.608
 210  1619.776
 211  1568.22
 212  1578.845
 213  1552.811
 214  1512.043
 215  1531.022
 216  1602.192
 217  1670.852
 218  1541.989
 219  1431.897
 220  1438.631
 221  1582.223
 222  1608.471
 223  1620.426
 224  1609.149
 225  1450.976
 226  1444.712
 227  1508.793
 228  1482.591
 229  1590.405
 230  1550.715
 231  1504.965
 232  1522.809
 233  1535.651
 234  1503.333
 235  1404.118
 236  1569.884
 237  1593.555
 238  1561.912
 239  1488.094
 240  1560.26
 241  1602.564
 242  1558.026
 243  1539.136
 244  1557.652
 245  1590.605
 246  1631.529
 247  1545.306
 248  1590.058
 249  1578.227
 250  1521.344
 251  1529.23
 252  1422.586
 253  1467.859
 254  1512.248
 255  1548.774
 256  1585.561
 257  1536.118
 258  1567.018
 259  1561.454
 260  1490.601
 261  1457.431
 262  1481.714
 263  1532.278
 264  1527.607
 265  1540.588
 266  1454.061
 267  1314.248
 268  1394.146
 269  1513.728
 270  1511.334
 271  1479.149
 272  1528.349
 273  1497.486
 274  1460.136
 275  1513.489
 276  1443.368
 277  1507.173
 278  1644.312
 279  1609.84
 280  1545.415
 281  1547.317
 282  1574.138
 283  1581.505
 284  1528.022
 285  1468.474
 286  1434.635
 287  1408.521
 288  1390.561
 289  1452.767
 290  1507.849
 291  1549.448
 292  1488.183
 293  1505.337
 294  1512.26
 295  1539.803
 296  1489.695
 297  1491.198
 298  1474.526
 299  1455.651
 300  1565.065
 301  1498.882
 302  1449.415
 303  1445.078
 304  1494.564
 305  1504.368
 306  1613.475
 307  1617.359
 308  1594.945
 309  1533.746
 310  1496.014
 311  1443.769
 312  1347.816
 313  1401.209
 314  1533.398
 315  1583.917
 316  1533.298
 317  1566.33
 318  1489.676
 319  1376.988
 320  1447.458
 321  1442.334
 322  1482.495
 323  1498.951
 324  1554.333
 325  1502.192
 326  1381.542
 327  1361.534
 328  1366.403
 329  1357.235
 330  1444.618
 331  1534.219
 332  1508.391
 333  1385.506
 334  1401.677
 335  1351.913
 336  1298.867
 337  1424.781
 338  1464.99
 339  1370.668
 340  1445.68
 341  1514.932
 342  1433.376
 343  1482.578
 344  1567.566
 345  1391.348
 346  1400.876
 347  1400.417
 348  1341.903
 349  1272.548
 350  1324.568
 351  1433.041
 352  1539.972
 353  1474.858
 354  1312.417
 355  1332.225
 356  1396.464
 357  1364.747
 358  1397.918
 359  1428.617
 360  1374.803
 361  1420.133
 362  1456.547
 363  1490.386
 364  1482.853
 365  1341.755
 366  1315.254
 367  1300.274
 368  1345.678
 369  1285.774
 370  1424.524
 371  1408.521
 372  1422.48
 373  1431.896
 374  1444.925
 375  1403.389
 376  1351.358
 377  1370.52
 378  1371.595
 379  1403.401
 380  1441.132
 381  1493.794
 382  1509.271
 383  1440.394
 384  1333.113
 385  1443.485
 386  1347.955
 387  1351.028
 388  1375.86
 389  1383.897
 390  1329.249
 391  1378.817
 392  1409.157
 393  1370.037
 394  1353.458
 395  1446.297
 396  1394.192
 397  1463.581
 398  1507.352
 399  1467.588
 400  1420.326
 401  1353.205
 402  1370.919
 403  1369.189
 404  1294.66
 405  1379.708
 406  1441.176
 407  1423.565
 408  1380.704
 409  1310.517
 410  1393.029
 411  1389.24
 412  1344.353
 413  1440.205
 414  1437.141
 415  1384.898
 416  1354.202
 417  1294.15
 418  1305.87
 419  1286.218
 420  1302.673
 421  1341.4
 422  1432.543
 423  1386.46
 424  1268.887
 425  1212.656
 426  1361.637
 427  1458.817
 428  1412.672
 429  1426.757
 430  1459.144
 431  1417.345
 432  1439.949
 433  1422.127
 434  1355.204
 435  1362.946
 436  1462.845
 437  1417.527
 438  1374.693
 439  1405.427
 440  1326.731
 441  1301.106
 442  1438.682
 443  1488.282
 444  1533.244
 445  1424.619
 446  1448.312
 447  1516.39
 448  1454.987
 449  1553.946
 450  1514.7
 451  1512.05
 452  1549.717
 453  1532.072
 454  1445.013
 455  1423.244
 456  1460.682
 457  1510.835
 458  1593.102
 459  1568.239
 460  1528.957
 461  1507.331
 462  1638.698
 463  1672.697
 464  1570.108
 465  1548.135
 466  1514.589
 467  1584.526
 468  1486.393
 469  1387.107
 470  1456.96
 471  1455.974
 472  1458.193
 473  1499.535
 474  1490.082
 475  1422.85
 476  1402.505
 477  1493.808
 478  1596.187
 479  1503.243
 480  1552.678
 481  1580.344
 482  1501.645
 483  1560.012
 484  1552.077
 485  1507.694
 486  1512.745
 487  1452.48
 488  1519.097
 489  1506.721
 490  1500.734
 491  1509.856
 492  1628.852
 493  1591.248
 494  1497.941
 495  1518.08
 496  1539.06
 497  1502.129
 498  1555.666
 499  1574.084
 500  1550.727
 501  1559.21
 502  1543.368
 503  1560.26
 504  1591.87
 505  1595.894
 506  1559.538
 507  1704.41
 508  1711.586
 509  1803.769
 510  2031.013
 511  2156.528
