# Input file       =  1205167077.107159_cleaned.dat
# Candidate        =  PSR_0332+5434
# Telescope        =  AR
# Epoch_topo       =  58192.693241981004
# Epoch_bary       =  N/A
# T_sample         =  0.002
# Data Folded      =  7340032
# Data Avg         =  0.0412712605830163
# Data StdDev      =  3.35873921276238 
# Profile Bins     =  1024
# Profile Avg      =  295.80519891106  
# Profile StdDev   =  284.364437622084 
# Reduced chi-sqr  =  1.029
# Prob(Noise)      <  0.25   (~0.7 sigma)
# P_topo (ms)      =  714.577701455384  +/- 0.000445
# P'_topo (s/s)    =  -0                +/- 2.35e-10
# P''_topo (s/s^2) =  0                 +/- 1.04e-13
# P_bary (ms)      =  N/A
# P'_bary (s/s)    =  N/A
# P''_bary (s/s^2) =  N/A
# P_orb (s)        =  N/A
# asin(i)/c (s)    =  N/A
# eccentricity     =  N/A
# w (rad)          =  N/A
# T_peri           =  N/A
######################################################
   0  336.4563
   1  285.3765
   2  278.0378
   3  224.2047
   4  270.5359
   5  292.7937
   6  215.4432
   7  165.3682
   8  58.48509
   9  141.2458
  10  98.06355
  11  213.8157
  12  309.5687
  13  350.6942
  14  266.9616
  15  161.7158
  16  29.37523
  17  -9.172125
  18  18.08093
  19  72.8681
  20  146.4866
  21  170.3232
  22  221.7936
  23  242.8964
  24  236.4963
  25  313.8223
  26  361.4352
  27  355.7238
  28  374.357
  29  412.2664
  30  380.5718
  31  400.7528
  32  331.0519
  33  382.6134
  34  295.5085
  35  155.529
  36  64.74343
  37  58.2687
  38  156.2902
  39  267.5301
  40  285.1144
  41  426.2326
  42  393.1802
  43  389.8945
  44  365.9576
  45  349.5988
  46  423.3626
  47  429.1559
  48  463.9597
  49  357.2591
  50  353.939
  51  302.7406
  52  263.0377
  53  152.2775
  54  165.1641
  55  221.9998
  56  399.3685
  57  361.5805
  58  235.9669
  59  110.7712
  60  98.50465
  61  178.9399
  62  149.1335
  63  83.56137
  64  44.07474
  65  71.29931
  66  159.6131
  67  262.6465
  68  340.5243
  69  284.338
  70  237.6052
  71  155.2896
  72  302.1357
  73  383.3274
  74  460.2486
  75  437.9051
  76  391.1051
  77  257.7787
  78  163.6659
  79  212.3721
  80  332.4722
  81  372.8018
  82  398.5044
  83  352.5503
  84  359.2364
  85  341.0167
  86  234.3491
  87  125.6256
  88  139.2863
  89  285.6922
  90  361.0878
  91  335.4083
  92  344.0443
  93  439.9831
  94  534.0037
  95  584.8717
  96  419.35
  97  300.1619
  98  327.535
  99  523.0535
 100  504.63
 101  484.5375
 102  389.7889
 103  328.007
 104  111.1096
 105  26.9462
 106  87.75479
 107  234.6596
 108  446.419
 109  612.9874
 110  657.6847
 111  530.4755
 112  412.7539
 113  358.3367
 114  375.0638
 115  381.236
 116  351.2715
 117  419.7042
 118  437.0483
 119  476.23
 120  559.1378
 121  687.075
 122  647.0753
 123  438.3762
 124  359.3202
 125  410.2271
 126  399.7599
 127  210.0152
 128  282.948
 129  352.137
 130  560.6353
 131  515.2262
 132  520.4872
 133  474.1339
 134  369.5979
 135  373.7594
 136  337.6268
 137  380.3522
 138  285.669
 139  236.2423
 140  315.1945
 141  488.0018
 142  536.7164
 143  528.4747
 144  477.5938
 145  463.5889
 146  535.9852
 147  422.4376
 148  396.9601
 149  271.8144
 150  231.7692
 151  219.1078
 152  129.9981
 153  89.95803
 154  -14.43143
 155  34.64763
 156  203.4507
 157  250.4159
 158  303.957
 159  295.6248
 160  407.7043
 161  463.2058
 162  451.4404
 163  316.7033
 164  280.6395
 165  322.901
 166  360.604
 167  398.4287
 168  402.5403
 169  482.0327
 170  397.853
 171  297.1553
 172  212.7113
 173  274.7696
 174  288.381
 175  280.8773
 176  376.4193
 177  508.1145
 178  551.6729
 179  538.048
 180  461.3695
 181  336.9349
 182  323.8936
 183  319.4541
 184  332.1693
 185  366.3788
 186  358.5637
 187  236.1958
 188  159.8448
 189  173.4678
 190  265.806
 191  240.068
 192  413.2017
 193  352.2004
 194  360.4107
 195  404.7323
 196  522.0488
 197  516.6581
 198  526.121
 199  488.1464
 200  457.9596
 201  386.3368
 202  332.6541
 203  288.6744
 204  330.0238
 205  403.2847
 206  458.0175
 207  474.6177
 208  415.3826
 209  263.6061
 210  171.762
 211  214.0093
 212  313.0338
 213  332.9954
 214  387.1953
 215  383.118
 216  436.8097
 217  294.5895
 218  249.8557
 219  183.2151
 220  295.4502
 221  233.0464
 222  228.6903
 223  260.693
 224  338.8526
 225  365.493
 226  354.213
 227  420.7264
 228  461.9066
 229  410.0451
 230  322.9057
 231  352.6007
 232  505.4105
 233  521.9799
 234  390.9525
 235  343.0667
 236  432.7386
 237  499.8476
 238  363.734
 239  258.6351
 240  352.1808
 241  486.1458
 242  645.4851
 243  611.2425
 244  531.4612
 245  395.0475
 246  430.9555
 247  605.917
 248  686.8696
 249  750.7184
 250  606.005
 251  429.8613
 252  335.3445
 253  240.8722
 254  271.2012
 255  326.9978
 256  406.5403
 257  483.3922
 258  498.7627
 259  574.6032
 260  577.2873
 261  493.4481
 262  543.0786
 263  486.0523
 264  529.4818
 265  462.6437
 266  396.2701
 267  284.1954
 268  268.4136
 269  203.1837
 270  284.2414
 271  369.1822
 272  399.7856
 273  320.1928
 274  211.2242
 275  314.2984
 276  377.0602
 277  425.0284
 278  445.3142
 279  483.1491
 280  423.1812
 281  355.902
 282  377.2397
 283  481.9038
 284  527.3775
 285  543.7528
 286  473.1487
 287  488.9313
 288  488.6463
 289  433.129
 290  391.8148
 291  380.8075
 292  436.7899
 293  430.162
 294  306.074
 295  269.2465
 296  241.0158
 297  379.2021
 298  263.1793
 299  316.0622
 300  250.9691
 301  403.1749
 302  466.7312
 303  517.8376
 304  530.3984
 305  337.7831
 306  331.1712
 307  328.2368
 308  371.294
 309  416.4365
 310  464.138
 311  518.0188
 312  458.0726
 313  378.8817
 314  392.3561
 315  365.6622
 316  352.4781
 317  206.4121
 318  169.528
 319  142.0831
 320  248.8783
 321  328.4421
 322  328.505
 323  229.3664
 324  110.6323
 325  162.0936
 326  260.2813
 327  175.5073
 328  128.2864
 329  119.9985
 330  146.6098
 331  107.7589
 332  134.3345
 333  136.6692
 334  139.1213
 335  86.05037
 336  51.90861
 337  45.12049
 338  57.90607
 339  -0.1561979
 340  78.64478
 341  98.1926
 342  228.2729
 343  234.3314
 344  190.8197
 345  155.8958
 346  135.6503
 347  272.4985
 348  269.9362
 349  385.3979
 350  331.8365
 351  364.2467
 352  330.5905
 353  455.4782
 354  386.2637
 355  340.6299
 356  331.4382
 357  445.5758
 358  392.4172
 359  376.9406
 360  382.4463
 361  416.972
 362  346.9158
 363  292.6554
 364  301.9219
 365  259.3438
 366  236.3057
 367  224.768
 368  212.0329
 369  162.3587
 370  106.2446
 371  205.5489
 372  246.4498
 373  253.4768
 374  277.9115
 375  297.5361
 376  386.9849
 377  349.8498
 378  239.8372
 379  166.4442
 380  184.4475
 381  224.9558
 382  205.0687
 383  204.3785
 384  263.6387
 385  254.1805
 386  187.0402
 387  131.2437
 388  242.2703
 389  280.2144
 390  277.0971
 391  246.8551
 392  299.4937
 393  348.8322
 394  272.8203
 395  97.54338
 396  35.34535
 397  180.4707
 398  376.224
 399  391.7863
 400  343.667
 401  259.7008
 402  245.4304
 403  204.7424
 404  147.8072
 405  202.194
 406  140.6462
 407  205.1122
 408  127.713
 409  41.87045
 410  -69.95031
 411  -7.134381
 412  24.11839
 413  72.45834
 414  9.99429
 415  48.79655
 416  -52.21194
 417  1.07627
 418  147.9929
 419  305.5753
 420  296.8695
 421  215.8637
 422  38.8028
 423  93.07588
 424  73.14012
 425  107.7125
 426  99.93668
 427  188.4798
 428  195.7589
 429  118.847
 430  76.28459
 431  137.0074
 432  311.119
 433  336.2878
 434  392.579
 435  468.6637
 436  524.3107
 437  461.2854
 438  338.3376
 439  311.9654
 440  199.4286
 441  199.0533
 442  167.9079
 443  145.4595
 444  189.2871
 445  150.2172
 446  216.932
 447  238.302
 448  325.1108
 449  338.2748
 450  249.7595
 451  288.7806
 452  300.9037
 453  257.5981
 454  126.6611
 455  184.7913
 456  193.9652
 457  230.2791
 458  218.2047
 459  263.3148
 460  257.4051
 461  291.9271
 462  318.3314
 463  311.9937
 464  289.6635
 465  331.0113
 466  361.6766
 467  353.5804
 468  301.0669
 469  294.2606
 470  370.0127
 471  500.0066
 472  389.8593
 473  263.5188
 474  273.8778
 475  462.4457
 476  616.158
 477  600.2548
 478  453.206
 479  315.0263
 480  128.6283
 481  211.9354
 482  280.5701
 483  432.7038
 484  456.8564
 485  413.8032
 486  324.647
 487  302.5209
 488  368.3326
 489  373.5756
 490  362.3782
 491  234.8611
 492  210.527
 493  176.4899
 494  277.1463
 495  268.6505
 496  357.4016
 497  339.8125
 498  325.1306
 499  354.8689
 500  202.1359
 501  82.12933
 502  -40.85605
 503  70.10314
 504  84.04257
 505  119.1238
 506  221.7719
 507  385.3952
 508  369.3384
 509  225.1487
 510  60.31605
 511  44.88604
 512  43.5622
 513  108.7976
 514  97.11442
 515  73.13897
 516  -54.73639
 517  -37.98127
 518  53.65586
 519  302.8232
 520  294.8631
 521  254.4107
 522  107.0005
 523  88.83026
 524  148.0096
 525  196.6836
 526  219.6479
 527  75.5357
 528  158.3716
 529  209.5731
 530  279.9329
 531  323.3996
 532  357.0033
 533  291.5603
 534  222.278
 535  225.66
 536  284.7744
 537  215.6579
 538  82.24625
 539  -26.44942
 540  24.50902
 541  114.8918
 542  161.4577
 543  183.1304
 544  282.473
 545  342.7207
 546  427.3974
 547  336.5086
 548  393.131
 549  328.9146
 550  436.4349
 551  380.2384
 552  391.9697
 553  351.5517
 554  436.625
 555  452.4305
 556  569.6763
 557  498.6158
 558  437.8942
 559  258.7231
 560  266.8548
 561  292.3722
 562  306.5101
 563  304.94
 564  297.1981
 565  350.8175
 566  392.6488
 567  355.1179
 568  275.6642
 569  162.5467
 570  304.7455
 571  460.8968
 572  503.0213
 573  413.1422
 574  382.042
 575  440.1102
 576  364.1024
 577  158.6737
 578  49.2957
 579  143.4784
 580  251.6805
 581  198.9124
 582  214.6376
 583  338.6278
 584  458.5681
 585  537.8595
 586  493.3986
 587  560.6337
 588  452.1312
 589  430.5667
 590  384.2327
 591  356.7489
 592  404.4733
 593  399.3323
 594  374.9966
 595  348.1837
 596  384.8396
 597  489.3645
 598  577.0785
 599  679.6694
 600  745.9497
 601  780.842
 602  904.2012
 603  1051.149
 604  1154.612
 605  1160.873
 606  1143.177
 607  1157.209
 608  1160.453
 609  1137.82
 610  1117.858
 611  994.255
 612  797.225
 613  645.4108
 614  685.9427
 615  509.3811
 616  422.3757
 617  330.049
 618  379.0507
 619  301.2189
 620  247.023
 621  239.1507
 622  168.6912
 623  155.1365
 624  258.4993
 625  355.9933
 626  427.0897
 627  339.1803
 628  335.0208
 629  344.2531
 630  317.9674
 631  283.7398
 632  256.4127
 633  356.2563
 634  317.6288
 635  309.0891
 636  273.025
 637  251.4142
 638  134.8696
 639  107.0943
 640  104.5151
 641  175.8949
 642  174.738
 643  162.6386
 644  127.9551
 645  61.55823
 646  76.1067
 647  95.12668
 648  41.30352
 649  6.894336
 650  119.261
 651  172.0362
 652  172.728
 653  147.1309
 654  248.3524
 655  185.4818
 656  155.2108
 657  108.6059
 658  71.13122
 659  -85.57182
 660  -84.3548
 661  45.72635
 662  100.3807
 663  142.2683
 664  169.3481
 665  230.6842
 666  155.0795
 667  185.0051
 668  294.5661
 669  263.8686
 670  240.1461
 671  288.6359
 672  407.8727
 673  404.9313
 674  331.7533
 675  327.1234
 676  399.632
 677  361.9164
 678  378.5976
 679  328.6231
 680  421.0135
 681  489.0578
 682  436.9778
 683  291.1567
 684  100.4847
 685  79.12685
 686  132.1645
 687  268.7664
 688  311.8654
 689  348.7365
 690  268.5095
 691  279.6705
 692  171.2265
 693  159.2798
 694  167.4242
 695  157.9368
 696  216.2427
 697  264.0041
 698  291.4948
 699  179.8159
 700  63.48103
 701  190.0637
 702  228.0143
 703  275.8741
 704  263.7017
 705  391.1446
 706  298.6409
 707  124.7304
 708  124.05
 709  255.4158
 710  305.5148
 711  320.176
 712  297.4301
 713  339.3157
 714  346.7221
 715  326.0221
 716  197.5813
 717  161.9253
 718  202.677
 719  270.8828
 720  441.3546
 721  471.3658
 722  543.4487
 723  461.3704
 724  420.4611
 725  297.1134
 726  178.1154
 727  267.778
 728  284.1541
 729  435.558
 730  405.4932
 731  392.9917
 732  373.0518
 733  430.8227
 734  485.2371
 735  429.6936
 736  354.9938
 737  264.3837
 738  152.9665
 739  210.3708
 740  270.4784
 741  287.4081
 742  207.2857
 743  119.9687
 744  38.87844
 745  49.98147
 746  77.82256
 747  47.29803
 748  57.58378
 749  173.3179
 750  270.7827
 751  382.986
 752  392.3452
 753  454.3758
 754  392.7686
 755  258.9567
 756  136.5084
 757  51.72896
 758  101.9396
 759  205.4233
 760  205.8093
 761  225.5919
 762  252.0338
 763  366.0714
 764  426.3654
 765  424.2086
 766  377.2642
 767  312.5521
 768  320.8034
 769  277.0165
 770  274.7227
 771  269.308
 772  341.6729
 773  221.7149
 774  210.8935
 775  261.3369
 776  399.2423
 777  282.9229
 778  116.8347
 779  70.5396
 780  63.46717
 781  79.85307
 782  102.4466
 783  263.5998
 784  292.2051
 785  224.4558
 786  142.0133
 787  152.825
 788  157.5644
 789  217.8797
 790  215.2269
 791  240.3063
 792  182.8752
 793  70.31298
 794  31.04576
 795  8.356887
 796  41.32351
 797  -28.37459
 798  99.90013
 799  150.5434
 800  182.7252
 801  258.5868
 802  348.5999
 803  393.1127
 804  223.3105
 805  201.3987
 806  214.3566
 807  254.4675
 808  188.2547
 809  141.9828
 810  253.0021
 811  441.2836
 812  519.8851
 813  300.7407
 814  195.5499
 815  236.5167
 816  369.6152
 817  335.8726
 818  280.2981
 819  251.0434
 820  281.396
 821  353.3956
 822  352.3448
 823  366.7857
 824  351.7273
 825  387.3215
 826  461.3437
 827  263.6993
 828  46.34361
 829  49.8233
 830  260.6702
 831  443.2723
 832  337.1419
 833  259.587
 834  279.1321
 835  273.8286
 836  351.3023
 837  274.5278
 838  300.2703
 839  245.7161
 840  274.3084
 841  241.6565
 842  201.8278
 843  144.0519
 844  218.1981
 845  273.073
 846  416.0825
 847  396.2738
 848  399.2438
 849  359.2961
 850  187.3285
 851  200.571
 852  276.035
 853  459.1328
 854  449.0342
 855  431.9223
 856  529.2709
 857  558.2393
 858  376.765
 859  251.258
 860  119.1957
 861  125.0943
 862  153.2646
 863  371.7765
 864  437.6107
 865  411.8351
 866  429.5037
 867  460.1555
 868  499.1521
 869  264.0755
 870  228.9011
 871  228.1489
 872  301.1832
 873  342.6457
 874  310.1861
 875  250.3416
 876  117.7518
 877  114.706
 878  188.0683
 879  263.9427
 880  200.1659
 881  185.8469
 882  204.9904
 883  281.1674
 884  250.2254
 885  247.9089
 886  228.0268
 887  183.5922
 888  133.6481
 889  122.4692
 890  143.413
 891  144.8869
 892  121.8707
 893  197.9968
 894  185.4416
 895  280.4328
 896  96.39942
 897  167.4435
 898  133.2156
 899  173.2408
 900  119.306
 901  213.4021
 902  265.8201
 903  188.0079
 904  153.4817
 905  54.77996
 906  105.1424
 907  104.6524
 908  221.5417
 909  201.2628
 910  136.1763
 911  22.45513
 912  64.95965
 913  157.7255
 914  211.9107
 915  152.4946
 916  252.0609
 917  339.3453
 918  449.9204
 919  335.9438
 920  339.066
 921  340.1349
 922  365.7807
 923  219.9919
 924  153.5271
 925  202.821
 926  236.5772
 927  203.9603
 928  141.8051
 929  210.9896
 930  274.3097
 931  431.7169
 932  415.735
 933  298.563
 934  262.8095
 935  313.519
 936  347.281
 937  315.9674
 938  270.6787
 939  326.5628
 940  143.9999
 941  73.40546
 942  46.43722
 943  162.5527
 944  228.7213
 945  270.5332
 946  355.3312
 947  309.0118
 948  295.7706
 949  259.6069
 950  218.1701
 951  212.1383
 952  329.5801
 953  427.2978
 954  466.4101
 955  482.5504
 956  449.562
 957  354.974
 958  296.7818
 959  329.1311
 960  375.2996
 961  275.0505
 962  312.1642
 963  247.7591
 964  260.8497
 965  188.5087
 966  213.3839
 967  237.2349
 968  304.1747
 969  361.5836
 970  353.7566
 971  341.2881
 972  305.5418
 973  306.1326
 974  264.8969
 975  201.0627
 976  233.4847
 977  406.6821
 978  447.5651
 979  428.8863
 980  301.2245
 981  223.7265
 982  246.0502
 983  135.6635
 984  137.1211
 985  113.4657
 986  194.1195
 987  283.076
 988  463.0293
 989  527.4371
 990  461.8179
 991  229.7951
 992  218.6075
 993  268.85
 994  296.0711
 995  97.24941
 996  113.1477
 997  323.0293
 998  360.7856
 999  243.466
1000  73.01929
1001  195.539
1002  323.0321
1003  361.8091
1004  303.2281
1005  77.44607
1006  103.5322
1007  153.3456
1008  315.1252
1009  314.9728
1010  269.615
1011  301.0321
1012  358.4645
1013  374.4979
1014  276.0977
1015  200.8745
1016  209.2851
1017  167.9043
1018  139.0979
1019  192.9301
1020  387.0436
1021  546.1584
1022  568.1336
1023  491.3359
