# Input file       =  1205927696.108282_cleaned.dat
# Candidate        =  PSR_0332+5434
# Telescope        =  AR
# Epoch_topo       =  58201.496702642151
# Epoch_bary       =  N/A
# T_sample         =  0.002
# Data Folded      =  7340032
# Data Avg         =  0.479405038806103
# Data StdDev      =  5.99253539648348 
# Profile Bins     =  512
# Profile Avg      =  6872.96980410337 
# Profile StdDev   =  717.504458616215 
# Reduced chi-sqr  =  0.809
# Prob(Noise)      <  0.999   (~0.0 sigma)
# P_topo (ms)      =  714.573698393653  +/- 0.000721
# P'_topo (s/s)    =  -0                +/- 3.8e-10
# P''_topo (s/s^2) =  0                 +/- 1.68e-13
# P_bary (ms)      =  N/A
# P'_bary (s/s)    =  N/A
# P''_bary (s/s^2) =  N/A
# P_orb (s)        =  N/A
# asin(i)/c (s)    =  N/A
# eccentricity     =  N/A
# w (rad)          =  N/A
# T_peri           =  N/A
######################################################
   0  6818.142
   1  6703.387
   2  6615.015
   3  6384.024
   4  6251.617
   5  6367.316
   6  6386.695
   7  6552.074
   8  6874.174
   9  7091.222
  10  7121.909
  11  6755.06
  12  6979.43
  13  6829.271
  14  6642.479
  15  6767.172
  16  7025.717
  17  6939.113
  18  7288.115
  19  7472.272
  20  6898.65
  21  6654.925
  22  6884.959
  23  6965.177
  24  6998.699
  25  7118.529
  26  6863.768
  27  6576.828
  28  6718.569
  29  6638.167
  30  6411.636
  31  6525.849
  32  6925.94
  33  6472.316
  34  6402.228
  35  6544.697
  36  6465.624
  37  6707.91
  38  6880.909
  39  6681.578
  40  6644.443
  41  6336.74
  42  6457.973
  43  6462.889
  44  6652.624
  45  6818.148
  46  7131.448
  47  7221.561
  48  7115.011
  49  6862.783
  50  6546.607
  51  7275.875
  52  6995.606
  53  6748.516
  54  6514.267
  55  6564.923
  56  6559.213
  57  6574.097
  58  6749.053
  59  6826.463
  60  7139.745
  61  6728.569
  62  6721.936
  63  6691.874
  64  6565.891
  65  6626.604
  66  7185.919
  67  6772.929
  68  6802.558
  69  7172.284
  70  7244.31
  71  7083.424
  72  7272.057
  73  7349.533
  74  7241.774
  75  7451.839
  76  7181.485
  77  6881.5
  78  6975.972
  79  7031.797
  80  7173.921
  81  6833.925
  82  7010.696
  83  6914.221
  84  6873.031
  85  6623.864
  86  6646.235
  87  6668.12
  88  6685.712
  89  6721.141
  90  6577.401
  91  6878.145
  92  7137.866
  93  7016.415
  94  6697.122
  95  6642.803
  96  6779.94
  97  6998.789
  98  7040.89
  99  6778.729
 100  6824.234
 101  6731.032
 102  6801.458
 103  6913.023
 104  7261.124
 105  7187.637
 106  7049.965
 107  6607.264
 108  6669.036
 109  6500.389
 110  6592.948
 111  6624.173
 112  6927.675
 113  6939.352
 114  6859.917
 115  6860.438
 116  6710.404
 117  6310.573
 118  6371.815
 119  6683.741
 120  6769.184
 121  7032.333
 122  7151.219
 123  7359.058
 124  7316.354
 125  7357.761
 126  7551.634
 127  7466.477
 128  7347.804
 129  7237.048
 130  7140.697
 131  7313.98
 132  7341.784
 133  7399.934
 134  7512.114
 135  7773.406
 136  7839.976
 137  7578.718
 138  7501.106
 139  7500.894
 140  7512.035
 141  7895.717
 142  8075.862
 143  7846.062
 144  7584.462
 145  7971.736
 146  8076.321
 147  7819.105
 148  7773.566
 149  7972.146
 150  8123.579
 151  7893.244
 152  7802.398
 153  7967.068
 154  7575.709
 155  7450.999
 156  7620.416
 157  7557.51
 158  7183.209
 159  7301.03
 160  7265.746
 161  7641.876
 162  7235.973
 163  7265.661
 164  7347.697
 165  7096.417
 166  6886.109
 167  7044.479
 168  6851.949
 169  6755.458
 170  6927.041
 171  6827.165
 172  6971.085
 173  7086.628
 174  6748.78
 175  7065.417
 176  7047.983
 177  6756.791
 178  6495.964
 179  6476.31
 180  6605.419
 181  6424.324
 182  6238.152
 183  6654.213
 184  6713.205
 185  6701.956
 186  7007.117
 187  7037.136
 188  6900.699
 189  7009.852
 190  7042.169
 191  6660.177
 192  6574.169
 193  6289.436
 194  6124.169
 195  6636.415
 196  6701.849
 197  6516.341
 198  6500.847
 199  6395.388
 200  6345.821
 201  6490.651
 202  6358.325
 203  6522.561
 204  6439.85
 205  6383.805
 206  6327.665
 207  6406.044
 208  6617.785
 209  6351.211
 210  6205.288
 211  6293.281
 212  6680.192
 213  6341.632
 214  5977.194
 215  5873.191
 216  5771.594
 217  5776.223
 218  5735.169
 219  6088.297
 220  6065.856
 221  6099.872
 222  6061.374
 223  6070.083
 224  5751.955
 225  5967.475
 226  6182.93
 227  6102.779
 228  6258.452
 229  6322.88
 230  6233.417
 231  6443.373
 232  6332.376
 233  6543.258
 234  6841.146
 235  6799.033
 236  6835
 237  6740.753
 238  6688.734
 239  6911.05
 240  6860.008
 241  6985.508
 242  6771.015
 243  6639.59
 244  7078.991
 245  6938.604
 246  6639.317
 247  6263.802
 248  6721.97
 249  6862.686
 250  6497.169
 251  6665.214
 252  6435.462
 253  6759.88
 254  6797.654
 255  6915.763
 256  6583.805
 257  6726.487
 258  6798.945
 259  6776.721
 260  6902.543
 261  7088.271
 262  7164.994
 263  7258.625
 264  7116.445
 265  7180.898
 266  7064.833
 267  7061.907
 268  7493.162
 269  7822.918
 270  7760.192
 271  7491.262
 272  7775.431
 273  7982.962
 274  7761.086
 275  7476.734
 276  7682.545
 277  7686.701
 278  7785.213
 279  7580.764
 280  7195.719
 281  7205.999
 282  7376.081
 283  7545.082
 284  7275.412
 285  7402.206
 286  7081.396
 287  7129.213
 288  7033.33
 289  6908.827
 290  7076.665
 291  6884.464
 292  6667.181
 293  6712.463
 294  6661.809
 295  6764.39
 296  6946.216
 297  6987.785
 298  6747.716
 299  6631.694
 300  6902.636
 301  6796.904
 302  7404.086
 303  7397.534
 304  7301.03
 305  7535.576
 306  7459.23
 307  7247.693
 308  6937.348
 309  7248.366
 310  7252.299
 311  6874.67
 312  6964.315
 313  7066.18
 314  6632.654
 315  6725.851
 316  6692.626
 317  6724.096
 318  7021.362
 319  6879.95
 320  6582.11
 321  6686.959
 322  7003.288
 323  7207.766
 324  7143.807
 325  6720.59
 326  6626.895
 327  7094.448
 328  7390.098
 329  7278.526
 330  7363.344
 331  7222.178
 332  6848.168
 333  6817.373
 334  7048.739
 335  7259.103
 336  7415.876
 337  7676.232
 338  7486.389
 339  7131.404
 340  7169.969
 341  7596.821
 342  7255.143
 343  6883.776
 344  6787.876
 345  6772.413
 346  7084.275
 347  7035.59
 348  6815.659
 349  6802.846
 350  6681.518
 351  6576.619
 352  6918.874
 353  7200.286
 354  7282.257
 355  6950.756
 356  6480.614
 357  6428.269
 358  6522.017
 359  6538.876
 360  6481.281
 361  6849.487
 362  6819.519
 363  6395.782
 364  6050.456
 365  6597.663
 366  6681.771
 367  6078.518
 368  6295.042
 369  6402.613
 370  6272.561
 371  6048.434
 372  6494.034
 373  6585.192
 374  6443.121
 375  6387.142
 376  6075.125
 377  5779.891
 378  5422.608
 379  5529.395
 380  5972.602
 381  6116.541
 382  5713
 383  5887.904
 384  6214.652
 385  6520.042
 386  6547.649
 387  6307.072
 388  6523.817
 389  6718.443
 390  6542.464
 391  6692.878
 392  6732.981
 393  6516.685
 394  6325.154
 395  6452.624
 396  6249.664
 397  6131.044
 398  6494.002
 399  6235.369
 400  6400.137
 401  6357.054
 402  5984.401
 403  6198.08
 404  6540.071
 405  6569.659
 406  6581.86
 407  6455.902
 408  6500.842
 409  6568.71
 410  6474.87
 411  6546.723
 412  6673.368
 413  7022.165
 414  6942.847
 415  6913.479
 416  7090.71
 417  6840.029
 418  6936.363
 419  6949.89
 420  7075.445
 421  7065.237
 422  6686.68
 423  6661.331
 424  6906.81
 425  7042.01
 426  7086.87
 427  6901.333
 428  6939.782
 429  6705.491
 430  7201.369
 431  7432.85
 432  7684.264
 433  7951.602
 434  8318.209
 435  8769.039
 436  8279.615
 437  7738.173
 438  6867.453
 439  6338.665
 440  6062.91
 441  5843.994
 442  5997.194
 443  6297.532
 444  6176.335
 445  6277.181
 446  6360.602
 447  6418.309
 448  6421.088
 449  6805.395
 450  6763.899
 451  6803.681
 452  6908.075
 453  6936.46
 454  6961.75
 455  7396.939
 456  7492.035
 457  7487.753
 458  7074.038
 459  7136.196
 460  7222.582
 461  7113.804
 462  7367.988
 463  7383.151
 464  7079.246
 465  7068.698
 466  7066.403
 467  6907.479
 468  6789.529
 469  6874.562
 470  6899.072
 471  6674.841
 472  6651.959
 473  6613.166
 474  6974.441
 475  6757.17
 476  6866.036
 477  6834.095
 478  6863.358
 479  7119.832
 480  7620.582
 481  7448.07
 482  7299.419
 483  7517.677
 484  7420.014
 485  7085.354
 486  7030.343
 487  7116.644
 488  6949.847
 489  7065.182
 490  7640.793
 491  7578.594
 492  7087.215
 493  6753.65
 494  7024.342
 495  7360.179
 496  7331.89
 497  7041.798
 498  7103.523
 499  7058.44
 500  6788.961
 501  6696.92
 502  6835.998
 503  6846.375
 504  7040.854
 505  6899.843
 506  6482.857
 507  6618.501
 508  6574.515
 509  6473.931
 510  6860.508
 511  7068.088
