# Input file       =  1205568517.108477_cleaned.dat
# Candidate        =  PSR_0332+5434
# Telescope        =  AR
# Epoch_topo       =  58197.339538292559
# Epoch_bary       =  N/A
# T_sample         =  0.002
# Data Folded      =  7405568
# Data Avg         =  0.0996967452042395
# Data StdDev      =  1.00024781173953 
# Profile Bins     =  512
# Profile Avg      =  1442.00948035387 
# Profile StdDev   =  120.296174445595 
# Reduced chi-sqr  =  1.925
# Prob(Noise)      <  2.89e-32   (~11.8 sigma)
# P_topo (ms)      =  714.575574681669  +/- 6.85e-05
# P'_topo (s/s)    =  -0                +/- 3.58e-11
# P''_topo (s/s^2) =  0                 +/- 1.57e-14
# P_bary (ms)      =  N/A
# P'_bary (s/s)    =  N/A
# P''_bary (s/s^2) =  N/A
# P_orb (s)        =  N/A
# asin(i)/c (s)    =  N/A
# eccentricity     =  N/A
# w (rad)          =  N/A
# T_peri           =  N/A
######################################################
   0  2144.759
   1  2020.449
   2  1945.806
   3  1736.073
   4  1675.248
   5  1784.66
   6  1741.994
   7  1742.007
   8  1647.152
   9  1596.633
  10  1603.684
  11  1612.509
  12  1668.492
  13  1682.714
  14  1572.564
  15  1496.304
  16  1507.027
  17  1559.49
  18  1578.456
  19  1548.681
  20  1449.098
  21  1426.953
  22  1390.826
  23  1579.001
  24  1610.595
  25  1625.42
  26  1559.099
  27  1468.572
  28  1416.87
  29  1437.816
  30  1530.243
  31  1532.97
  32  1405.067
  33  1501.885
  34  1530.169
  35  1396.197
  36  1377.956
  37  1535.562
  38  1522.494
  39  1445.22
  40  1513.365
  41  1514.73
  42  1469.883
  43  1455.915
  44  1410.128
  45  1386.623
  46  1421.445
  47  1421.457
  48  1347.368
  49  1436.367
  50  1502.905
  51  1376.07
  52  1366.583
  53  1466.334
  54  1375.506
  55  1443.818
  56  1559.368
  57  1569.193
  58  1487.843
  59  1365.792
  60  1409.086
  61  1423.246
  62  1308.092
  63  1322.784
  64  1379.371
  65  1354.67
  66  1372.554
  67  1372.045
  68  1363.916
  69  1428.635
  70  1480.573
  71  1447.346
  72  1360.911
  73  1445
  74  1567.175
  75  1466.243
  76  1475.898
  77  1467.495
  78  1351.199
  79  1367.962
  80  1476.469
  81  1486.25
  82  1386.51
  83  1500.932
  84  1453.304
  85  1437.372
  86  1455.717
  87  1472.965
  88  1406.011
  89  1468.791
  90  1619.397
  91  1541.631
  92  1463.81
  93  1410.39
  94  1462.98
  95  1551.335
  96  1558.145
  97  1453.777
  98  1525.187
  99  1558.039
 100  1508.363
 101  1443.543
 102  1448.167
 103  1450.739
 104  1510.208
 105  1559.366
 106  1611.603
 107  1651.226
 108  1542.213
 109  1467.885
 110  1430.741
 111  1512.387
 112  1451.233
 113  1501.782
 114  1572.537
 115  1508.885
 116  1427.335
 117  1392.42
 118  1468.158
 119  1438.459
 120  1455.894
 121  1572.794
 122  1629.788
 123  1596.774
 124  1544.547
 125  1490.912
 126  1348.022
 127  1379.479
 128  1422.586
 129  1439.288
 130  1487.955
 131  1456.328
 132  1443.673
 133  1401.774
 134  1287.479
 135  1375.111
 136  1292.19
 137  1347.142
 138  1378.692
 139  1453.824
 140  1388.729
 141  1422.108
 142  1379.918
 143  1364.665
 144  1278.609
 145  1216.787
 146  1302.264
 147  1361.834
 148  1428.355
 149  1431.951
 150  1386.011
 151  1291.549
 152  1331.437
 153  1367.589
 154  1328.138
 155  1269.985
 156  1314.015
 157  1459.681
 158  1499.156
 159  1344.991
 160  1271.176
 161  1247.76
 162  1222.395
 163  1268.206
 164  1266.922
 165  1367.016
 166  1334.934
 167  1276.483
 168  1332.158
 169  1279.484
 170  1292.282
 171  1434.876
 172  1385.429
 173  1487.031
 174  1371.391
 175  1243.561
 176  1325.817
 177  1327.829
 178  1294.826
 179  1259.629
 180  1332.788
 181  1348.919
 182  1365.897
 183  1325.525
 184  1434.438
 185  1411.182
 186  1381.69
 187  1300.061
 188  1373.497
 189  1409.308
 190  1394.126
 191  1392.797
 192  1435.798
 193  1377.968
 194  1375.901
 195  1370.268
 196  1329.243
 197  1398.306
 198  1411.746
 199  1367.044
 200  1307.333
 201  1366.115
 202  1342.662
 203  1372.93
 204  1390.555
 205  1445.8
 206  1438.236
 207  1495.417
 208  1607.522
 209  1508.07
 210  1392.994
 211  1270.181
 212  1380.908
 213  1355.83
 214  1376.195
 215  1399.11
 216  1481.914
 217  1394.485
 218  1424.898
 219  1346.955
 220  1353.025
 221  1386.789
 222  1494.398
 223  1587.132
 224  1564.382
 225  1385.076
 226  1327.187
 227  1278.129
 228  1350.335
 229  1375.926
 230  1404.128
 231  1396.731
 232  1374.421
 233  1343.236
 234  1262.506
 235  1304.776
 236  1309.819
 237  1338.471
 238  1432.665
 239  1505.255
 240  1402.966
 241  1271.357
 242  1274.789
 243  1270.756
 244  1231.467
 245  1199.547
 246  1221.401
 247  1383.308
 248  1327.645
 249  1236.066
 250  1185.813
 251  1227.377
 252  1298.586
 253  1364.974
 254  1463.504
 255  1418.946
 256  1339.27
 257  1310.774
 258  1223.771
 259  1317.35
 260  1292.812
 261  1325.647
 262  1250.186
 263  1297.119
 264  1330.724
 265  1317.022
 266  1245.659
 267  1323.05
 268  1360.473
 269  1353.948
 270  1377.108
 271  1432.408
 272  1547.268
 273  1502.863
 274  1382.928
 275  1457.336
 276  1360.246
 277  1343.888
 278  1477.032
 279  1504.213
 280  1440.616
 281  1480.823
 282  1456.3
 283  1354.796
 284  1367.487
 285  1382.519
 286  1454.435
 287  1416.796
 288  1439.677
 289  1544.349
 290  1506.482
 291  1464.429
 292  1506.28
 293  1430.277
 294  1354.516
 295  1452.172
 296  1467.398
 297  1496.286
 298  1514.241
 299  1369.039
 300  1400.951
 301  1327.921
 302  1393.8
 303  1402.206
 304  1488.525
 305  1620.116
 306  1510.391
 307  1408.842
 308  1320.002
 309  1288.21
 310  1272.85
 311  1339.753
 312  1473.708
 313  1491.403
 314  1397.493
 315  1244.393
 316  1264.569
 317  1291.346
 318  1392.514
 319  1436.303
 320  1571.509
 321  1537.11
 322  1490.538
 323  1464.809
 324  1375.551
 325  1320.925
 326  1293.946
 327  1318.561
 328  1277.588
 329  1349.604
 330  1443.917
 331  1493.752
 332  1423.2
 333  1323.221
 334  1421.059
 335  1356.293
 336  1349.72
 337  1398.96
 338  1416.581
 339  1373.928
 340  1380.534
 341  1402.397
 342  1358.257
 343  1327.198
 344  1348.688
 345  1380.6
 346  1388.939
 347  1455.322
 348  1372.261
 349  1429.668
 350  1447.627
 351  1476.053
 352  1475.467
 353  1420.059
 354  1464.588
 355  1586.151
 356  1543.513
 357  1475.614
 358  1399.529
 359  1361.231
 360  1381.434
 361  1356.451
 362  1419.512
 363  1507.042
 364  1480.395
 365  1410.537
 366  1497.806
 367  1490.769
 368  1460.976
 369  1431.35
 370  1432.231
 371  1559.366
 372  1621.583
 373  1646.132
 374  1452.396
 375  1335.854
 376  1351.56
 377  1374.399
 378  1453.214
 379  1517.584
 380  1616.485
 381  1571.039
 382  1449.108
 383  1408.875
 384  1519.988
 385  1453.488
 386  1433.74
 387  1490.132
 388  1531.629
 389  1547.631
 390  1468.704
 391  1481.819
 392  1487.514
 393  1500.578
 394  1528.562
 395  1545.639
 396  1452.469
 397  1481.177
 398  1562.3
 399  1416.263
 400  1302.061
 401  1288.837
 402  1481.87
 403  1553.879
 404  1521.386
 405  1590.294
 406  1493.697
 407  1402.292
 408  1382.485
 409  1497.255
 410  1432.492
 411  1390.137
 412  1485.871
 413  1469.406
 414  1438.791
 415  1469.738
 416  1442.422
 417  1374.562
 418  1347.28
 419  1388.074
 420  1420.289
 421  1446.321
 422  1482.975
 423  1520.126
 424  1454.814
 425  1399.471
 426  1372.998
 427  1378.454
 428  1317.811
 429  1263.278
 430  1324.546
 431  1392.56
 432  1366.629
 433  1259.034
 434  1406.966
 435  1473.649
 436  1504.091
 437  1556.777
 438  1456.254
 439  1304.105
 440  1372.939
 441  1403.71
 442  1408.11
 443  1385.344
 444  1337.994
 445  1431.166
 446  1459.193
 447  1356.524
 448  1202.919
 449  1361.224
 450  1431.286
 451  1490.584
 452  1572.74
 453  1586.804
 454  1527.882
 455  1433.14
 456  1345.92
 457  1361.633
 458  1408.964
 459  1479.058
 460  1405.561
 461  1420.062
 462  1547.098
 463  1491.697
 464  1429.688
 465  1458.41
 466  1489.998
 467  1538.044
 468  1496.514
 469  1424.266
 470  1505.571
 471  1499.553
 472  1416.874
 473  1344.592
 474  1375.343
 475  1411.022
 476  1447.066
 477  1547.523
 478  1503.106
 479  1407.426
 480  1504.583
 481  1524.842
 482  1492.254
 483  1463.972
 484  1547.681
 485  1564.894
 486  1621.81
 487  1754.674
 488  1610.703
 489  1568.092
 490  1562.304
 491  1589.143
 492  1600.453
 493  1676.475
 494  1587.536
 495  1579.238
 496  1669.497
 497  1622.161
 498  1544.139
 499  1556.22
 500  1515.098
 501  1559.545
 502  1618.21
 503  1731.412
 504  1651.334
 505  1601.046
 506  1745.251
 507  1590.065
 508  1652.764
 509  1804.287
 510  2003.78
 511  2168.754
