# Input file       =  1205339709.115775_cleaned.dat
# Candidate        =  PSR_0332+5434
# Telescope        =  AR
# Epoch_topo       =  58194.691297636287
# Epoch_bary       =  N/A
# T_sample         =  0.002
# Data Folded      =  7340032
# Data Avg         =  0.289195742911292
# Data StdDev      =  5.53024885728197 
# Profile Bins     =  1024
# Profile Avg      =  2072.96370792418 
# Profile StdDev   =  468.213221269351 
# Reduced chi-sqr  =  0.776
# Prob(Noise)      <  1   (~0.0 sigma)
# P_topo (ms)      =  714.576991347366  +/- 0.000565
# P'_topo (s/s)    =  -0                +/- 2.98e-10
# P''_topo (s/s^2) =  0                 +/- 1.32e-13
# P_bary (ms)      =  N/A
# P'_bary (s/s)    =  N/A
# P''_bary (s/s^2) =  N/A
# P_orb (s)        =  N/A
# asin(i)/c (s)    =  N/A
# eccentricity     =  N/A
# w (rad)          =  N/A
# T_peri           =  N/A
######################################################
   0  2256.451
   1  2203.698
   2  2212.309
   3  2110.896
   4  2064.31
   5  2111.762
   6  2181.371
   7  2205.125
   8  2321.039
   9  2492.511
  10  2431.657
  11  2256.007
  12  2091.366
  13  2186.252
  14  2246.024
  15  2307.245
  16  2251.913
  17  2198.623
  18  2203.565
  19  2224.706
  20  2319.083
  21  2295.384
  22  2261.033
  23  2305.69
  24  2230.636
  25  2138.197
  26  2067.74
  27  1897.496
  28  1869.095
  29  1870.704
  30  1910.785
  31  1975.694
  32  2085.441
  33  2162.315
  34  2114.396
  35  2048.17
  36  2097.549
  37  2167.241
  38  2272.685
  39  2235.294
  40  2363.67
  41  2252.034
  42  2252.547
  43  2013.693
  44  2046.214
  45  2173.835
  46  2275.323
  47  2226.457
  48  2148.391
  49  2143.162
  50  2081.073
  51  2196.779
  52  2186.643
  53  2123.643
  54  2009.767
  55  1936.466
  56  2035.829
  57  2104.433
  58  2193.446
  59  2041.991
  60  2016.48
  61  2011.303
  62  2006.956
  63  2074.89
  64  2128.132
  65  2150.465
  66  2034.788
  67  2186.495
  68  2221.413
  69  2229.726
  70  2200.847
  71  1969.315
  72  2034.024
  73  1963.563
  74  2058.255
  75  1980.891
  76  2130.284
  77  2181.86
  78  2251.529
  79  2124.503
  80  2182.47
  81  2249.734
  82  2353.945
  83  2342.365
  84  2266.458
  85  2178.02
  86  2110.804
  87  1974.363
  88  1953.22
  89  2001.848
  90  2003.549
  91  1960.618
  92  1872.775
  93  1898.92
  94  2106.273
  95  2335.735
  96  2323.94
  97  2316.266
  98  2240.743
  99  2223.853
 100  2143.383
 101  2129.321
 102  2060.945
 103  2045.95
 104  1925.048
 105  1878.256
 106  1928.236
 107  2019.591
 108  1911.03
 109  1944.599
 110  1837.494
 111  1934.964
 112  1963.714
 113  2010.808
 114  2085.351
 115  2106.158
 116  2013.245
 117  1921.181
 118  1984.377
 119  2003.178
 120  1897.709
 121  1773.457
 122  1883.837
 123  2028.836
 124  2053.249
 125  2158.875
 126  2281.28
 127  2301.987
 128  2310.997
 129  2276.747
 130  2216.836
 131  2118.052
 132  2148.938
 133  2181.228
 134  1905.604
 135  1815.946
 136  1963.134
 137  2169.729
 138  2238.975
 139  2208.14
 140  2114.203
 141  2161.413
 142  2179.428
 143  2193.775
 144  2232.118
 145  2309.648
 146  2100.907
 147  1979.186
 148  1896.79
 149  2000.556
 150  2142.164
 151  2272.75
 152  2295.455
 153  2335.525
 154  2429.772
 155  2339.453
 156  2369.972
 157  2327.207
 158  2300.967
 159  2347.904
 160  2346.307
 161  2317.855
 162  2273.863
 163  2343.84
 164  2292.895
 165  2205.281
 166  2234.345
 167  2220.231
 168  2194.248
 169  2147.979
 170  2101.725
 171  2114.121
 172  2174.932
 173  2274.619
 174  2225.65
 175  2163.331
 176  2031.038
 177  2080.312
 178  2178.458
 179  2279.033
 180  2211.202
 181  2137.206
 182  2156.218
 183  2273.501
 184  2240.964
 185  2041.597
 186  1956.311
 187  1990.226
 188  1928.653
 189  1749.279
 190  1719.817
 191  1782.688
 192  1869.386
 193  1882.337
 194  1982.061
 195  2058.314
 196  1999.71
 197  1891.287
 198  1775.305
 199  1727.878
 200  1690.878
 201  1779.424
 202  1813.187
 203  1829.92
 204  1851.705
 205  1883.489
 206  1870.119
 207  1734.402
 208  1727.335
 209  1764.975
 210  1960.07
 211  2152.077
 212  2120.14
 213  2064.105
 214  1958.055
 215  1885.971
 216  1871.623
 217  1805.169
 218  1884.227
 219  1911.66
 220  1823.85
 221  1709.143
 222  1837.093
 223  1870.118
 224  1924.462
 225  1912.672
 226  1871.23
 227  1802.906
 228  1738.266
 229  1751.693
 230  1643.318
 231  1766.509
 232  1790.445
 233  1756.267
 234  1625.831
 235  1613.138
 236  1586.604
 237  1812.005
 238  1877.034
 239  1847.07
 240  1728.575
 241  1755.25
 242  1746.495
 243  1622.969
 244  1688.904
 245  1712.369
 246  1760.476
 247  1864.53
 248  1857.969
 249  1863.8
 250  1815.081
 251  1783.224
 252  1734.932
 253  1779.05
 254  1860.891
 255  1911.187
 256  1740.735
 257  1800.426
 258  1836.643
 259  1921.317
 260  1750.339
 261  1755.646
 262  1862.38
 263  2035.14
 264  2122.851
 265  2066.96
 266  1981.94
 267  1844.474
 268  1769.975
 269  1742.412
 270  1796.123
 271  1788.793
 272  1872.541
 273  1895.8
 274  2009.018
 275  1985.037
 276  2033.278
 277  1992.184
 278  1882.54
 279  1831.841
 280  1957.857
 281  1985.346
 282  1987.109
 283  1827.074
 284  1891.598
 285  1889.033
 286  1754.678
 287  1590.226
 288  1733.711
 289  1825.807
 290  1851.804
 291  1881.197
 292  1936.586
 293  1944.161
 294  1985.428
 295  2064.114
 296  2035.826
 297  1990.28
 298  1944.934
 299  1943.363
 300  2014.633
 301  2094.049
 302  2165.451
 303  2081.311
 304  2002.692
 305  1818.308
 306  1692.387
 307  1690.542
 308  1725.011
 309  1765.203
 310  1770.381
 311  1957.515
 312  1974.991
 313  1983.509
 314  1968.999
 315  2113.118
 316  2141.043
 317  2099.88
 318  2038.611
 319  1914.297
 320  1776.959
 321  1728.092
 322  1786.054
 323  1963.008
 324  1855.413
 325  1797.635
 326  1693.671
 327  1792.964
 328  1863.298
 329  1900.787
 330  1977.396
 331  2013.676
 332  2022.909
 333  1876.308
 334  1960.069
 335  2088.634
 336  2172.449
 337  2092.875
 338  2156.626
 339  2211.434
 340  2231.161
 341  2162.935
 342  2128.534
 343  2145.036
 344  2276.961
 345  2408.464
 346  2268.606
 347  2189.061
 348  2245.128
 349  2339.976
 350  2391.899
 351  2265.26
 352  2296.549
 353  2209.131
 354  2219.119
 355  2085.819
 356  2059.695
 357  2013.932
 358  1881.124
 359  1900.895
 360  1931.576
 361  1830.609
 362  1791.666
 363  1931.789
 364  2035.654
 365  2126.39
 366  2146.891
 367  2236.097
 368  2341.616
 369  2303.153
 370  2348.017
 371  2234.203
 372  2406.062
 373  2264.25
 374  2248.115
 375  2105.034
 376  2142.519
 377  2064.933
 378  2200.339
 379  2193.586
 380  2253.973
 381  2266.96
 382  2326.18
 383  2347.334
 384  2230.286
 385  2133.894
 386  2176.672
 387  2297.234
 388  2302.603
 389  2302.876
 390  2324.252
 391  2271.962
 392  2173.402
 393  2242.946
 394  2295.272
 395  2269.789
 396  2191.075
 397  2124.96
 398  1983.421
 399  1942.704
 400  2024.077
 401  2015.169
 402  2029.202
 403  1953.493
 404  1966.447
 405  1768.879
 406  1967.984
 407  2023.297
 408  2154.162
 409  2007.432
 410  2016.913
 411  2136.326
 412  2142.385
 413  2205.353
 414  2040.808
 415  1940.884
 416  1855.793
 417  1967.158
 418  1998.602
 419  1938.296
 420  1879.994
 421  2003.713
 422  2045.653
 423  2016.677
 424  2004.041
 425  2055.044
 426  1914.467
 427  1844.353
 428  1888.766
 429  2059.939
 430  2089.292
 431  2136.3
 432  2199.487
 433  2241.983
 434  2148.214
 435  2008.076
 436  2060.581
 437  2023.436
 438  1941.482
 439  1842.67
 440  1994.797
 441  1924.688
 442  1817.813
 443  1927.546
 444  2122.33
 445  2149.604
 446  2158.71
 447  2125.463
 448  2250.387
 449  2159.6
 450  2144.097
 451  1973.903
 452  1786.038
 453  1626.676
 454  1715.144
 455  2048.093
 456  2164.375
 457  1996.983
 458  1800.914
 459  1926.008
 460  2013.306
 461  2166.934
 462  2094.823
 463  2016.883
 464  1983.968
 465  1969.961
 466  1859.743
 467  1780.091
 468  1788.755
 469  1912.965
 470  2060.26
 471  2164.93
 472  2192.473
 473  2099.227
 474  1989.222
 475  2094.559
 476  2126.582
 477  2173.161
 478  2119.548
 479  2197.055
 480  2140.236
 481  2132.012
 482  2289.412
 483  2431.881
 484  2475.016
 485  2363.586
 486  2245.453
 487  1929.433
 488  1809.864
 489  1815.901
 490  2017.566
 491  2080.059
 492  2182.237
 493  2285.353
 494  2375.491
 495  2330.388
 496  2147.81
 497  2125.975
 498  2059.309
 499  2060.408
 500  2065.607
 501  2099.338
 502  2054.055
 503  1996.43
 504  2031.755
 505  2198.051
 506  2424.686
 507  2417.502
 508  2474.905
 509  2388.301
 510  2232.151
 511  2172.821
 512  2132.82
 513  2056.193
 514  2091.921
 515  2171.173
 516  2304.57
 517  2135.174
 518  2203.702
 519  2226.823
 520  2236.2
 521  2186.498
 522  2114.766
 523  2152.525
 524  2246.655
 525  2244.584
 526  2113.276
 527  1960.432
 528  1894.337
 529  1881.396
 530  2006.754
 531  2091.555
 532  2089.671
 533  1980.328
 534  1878.967
 535  1974.587
 536  2046.629
 537  2010.947
 538  2003.995
 539  2016.878
 540  2077.914
 541  2039.378
 542  1987.796
 543  1995.853
 544  2034.116
 545  2044.677
 546  2010.14
 547  2057.174
 548  2107.327
 549  2070.537
 550  1853.325
 551  1721.596
 552  1798.98
 553  1898.303
 554  2034.255
 555  2027.455
 556  1928.963
 557  1812.006
 558  1923.001
 559  2040.244
 560  2091.202
 561  1984.904
 562  2030.849
 563  2158.595
 564  2041.167
 565  2084.816
 566  2036.487
 567  2072.85
 568  2208.692
 569  2263.22
 570  2347.931
 571  2338.862
 572  2207.188
 573  2076.609
 574  2016.86
 575  2087.842
 576  2021.776
 577  1898.76
 578  1888.946
 579  2015.734
 580  2171.368
 581  2231.705
 582  2130.004
 583  2004.659
 584  1972.395
 585  2008.771
 586  2052.459
 587  2105.206
 588  2337.376
 589  2438.522
 590  2414.646
 591  2265.206
 592  2304.711
 593  2426.887
 594  2393.265
 595  2281.813
 596  2217.997
 597  2320.436
 598  2502.703
 599  2656.626
 600  2638.818
 601  2777.867
 602  2864.033
 603  2975.08
 604  2985.413
 605  3163.168
 606  3327.56
 607  3519.344
 608  3704.314
 609  3663.678
 610  3563.049
 611  3207.285
 612  2963.76
 613  2650.531
 614  2548.603
 615  2472.943
 616  2413.039
 617  2284.936
 618  2415.299
 619  2543.319
 620  2628.46
 621  2433.133
 622  2299.701
 623  2334.884
 624  2469.234
 625  2444.549
 626  2383.866
 627  2110.424
 628  2018.932
 629  1862.696
 630  1904.611
 631  2059.95
 632  2217.229
 633  2298.975
 634  2180.065
 635  2049.711
 636  1923.567
 637  1825.838
 638  1917.041
 639  2060.654
 640  2243.435
 641  2307.355
 642  2170.22
 643  2244.437
 644  2172.591
 645  2146.206
 646  2025.343
 647  2097.01
 648  2080.606
 649  2128.286
 650  1923.864
 651  1860.258
 652  1907.006
 653  2057.878
 654  2030.892
 655  1971.306
 656  1881.302
 657  1768.378
 658  1695.483
 659  1766.999
 660  1786.481
 661  1845.628
 662  1763.98
 663  1734.88
 664  1778.333
 665  1753.688
 666  1754.33
 667  1796.778
 668  1886.79
 669  1802.302
 670  1662.317
 671  1623.025
 672  1715.813
 673  1945.156
 674  1959.927
 675  1818.969
 676  1671.233
 677  1730.002
 678  1882.351
 679  1986.385
 680  2107.484
 681  2250.702
 682  2403.915
 683  2334.303
 684  2018.903
 685  1904.583
 686  1951.932
 687  1986.062
 688  2007.045
 689  1987.725
 690  1901.429
 691  1882.498
 692  1875.492
 693  2072.888
 694  2035.001
 695  2071.242
 696  2028.642
 697  1996.842
 698  2118.907
 699  2181.425
 700  2209.96
 701  2297.922
 702  2113.376
 703  2184.694
 704  2085.907
 705  2139.058
 706  2052.716
 707  1945.429
 708  1847.602
 709  1942.26
 710  1932.195
 711  2012.583
 712  1772.672
 713  1899.648
 714  1925.44
 715  2010.56
 716  1928.88
 717  2017.121
 718  2051.165
 719  2180.095
 720  2097.561
 721  2011.949
 722  1947.518
 723  1874.444
 724  1874.475
 725  1878.073
 726  1817.542
 727  1753.008
 728  1791.395
 729  1887.058
 730  1930.11
 731  1990.557
 732  2083.283
 733  2115.571
 734  1975.458
 735  1815.097
 736  1902.62
 737  1958.26
 738  1881.249
 739  2058.821
 740  2094.06
 741  2190.635
 742  2169.61
 743  2278.311
 744  2288.783
 745  2156.675
 746  1946.295
 747  1939.078
 748  1869.221
 749  1861.802
 750  1892.233
 751  2025.36
 752  2107.765
 753  2077.953
 754  1978.04
 755  1904.877
 756  2058.232
 757  2180.698
 758  2408.537
 759  2415.762
 760  2356.801
 761  2251.517
 762  2047.49
 763  2171.695
 764  2182.841
 765  2331.262
 766  2348.252
 767  2430.412
 768  2340.89
 769  2375.996
 770  2327.99
 771  2265.892
 772  2198.885
 773  2137.507
 774  2239.841
 775  2325.548
 776  2293.38
 777  2258.777
 778  2270.711
 779  2324.507
 780  2225.663
 781  2121.509
 782  1938.668
 783  1968.832
 784  2042.641
 785  2113.517
 786  2200.1
 787  2243.126
 788  2340.638
 789  2398.964
 790  2420.541
 791  2340.185
 792  2274.249
 793  2137.46
 794  2067.357
 795  2014.532
 796  2022.023
 797  2013.742
 798  2020.856
 799  2068.755
 800  2087.975
 801  2164.09
 802  2123.826
 803  1995.753
 804  1987.066
 805  2166.473
 806  2132.949
 807  2084.871
 808  2080.728
 809  2028.439
 810  1966.826
 811  1899.495
 812  1958.062
 813  2092.371
 814  2077.553
 815  1958.915
 816  1915.26
 817  1846.463
 818  1722.728
 819  1739.461
 820  1928.531
 821  2095.811
 822  1841.978
 823  1686.365
 824  1641.938
 825  1723.178
 826  1789.066
 827  1823.638
 828  1857.142
 829  1761.693
 830  1708.797
 831  1698.808
 832  1721.449
 833  1726.399
 834  1633.178
 835  1621.262
 836  1577.012
 837  1740.977
 838  1878.513
 839  2031.374
 840  1995.956
 841  1976.746
 842  2048.86
 843  2095.221
 844  2121.848
 845  2045.78
 846  2144.209
 847  2289.29
 848  2198.037
 849  2022.318
 850  1869.983
 851  2034.081
 852  2076.818
 853  2003.901
 854  2005.76
 855  2033.024
 856  1979.074
 857  1841.318
 858  1722.935
 859  1887.251
 860  2054.172
 861  2123.586
 862  2150.169
 863  2116.287
 864  2122.573
 865  1896.424
 866  1839.988
 867  1886.558
 868  2138.602
 869  2191.275
 870  2091.531
 871  2046.016
 872  2094.014
 873  2125.331
 874  2121.46
 875  2072.092
 876  2135.805
 877  2116.874
 878  2185.184
 879  2178.787
 880  2054.18
 881  1905.453
 882  1912.761
 883  2089.902
 884  2315.854
 885  2331.426
 886  2250.619
 887  2169.322
 888  2143.485
 889  2162.603
 890  2116.117
 891  2108.19
 892  2078.866
 893  1983.693
 894  1857.312
 895  1842.398
 896  1816.62
 897  1851.417
 898  1878.534
 899  1937.768
 900  1973.844
 901  2052.974
 902  2073.917
 903  2084.415
 904  1983.379
 905  1933.335
 906  1893.653
 907  1826.125
 908  1823.698
 909  1795.697
 910  1749.228
 911  1673.279
 912  1827.769
 913  1878.043
 914  1901.828
 915  1814.206
 916  1784.059
 917  1737.213
 918  1643.235
 919  1727.097
 920  1775.745
 921  1884.784
 922  1976.071
 923  2018.13
 924  1928.537
 925  1832.795
 926  1869.082
 927  1970.384
 928  2082.336
 929  2126.678
 930  2062.172
 931  2003.406
 932  1925.199
 933  1910.01
 934  1867.094
 935  1926.439
 936  2051.809
 937  2058.648
 938  2005.372
 939  1951.907
 940  2014.773
 941  2171.311
 942  2209.524
 943  2066.134
 944  2102.649
 945  2190.878
 946  2329.432
 947  2160.522
 948  2072.624
 949  1975.435
 950  2096.682
 951  2199.808
 952  2211.976
 953  2237.526
 954  2233.358
 955  2229.972
 956  2309.472
 957  2318.418
 958  2277.34
 959  2253.484
 960  2302.936
 961  2251.837
 962  2232.91
 963  2236.609
 964  2220.715
 965  2120.893
 966  2122.111
 967  2236.317
 968  2352.208
 969  2438.313
 970  2439.199
 971  2439.117
 972  2474.498
 973  2409.859
 974  2238.727
 975  2167.201
 976  2045.33
 977  2095.689
 978  2141.714
 979  2122.674
 980  2132.218
 981  2262.988
 982  2362.146
 983  2182.754
 984  1976.948
 985  1927.418
 986  1952.388
 987  2111.973
 988  2245.71
 989  2259.451
 990  2225.413
 991  2190.125
 992  2319.212
 993  2179.562
 994  2113.381
 995  2068.01
 996  2070.482
 997  2167.101
 998  2239.819
 999  2306.108
1000  2163.792
1001  2155.703
1002  2216.7
1003  2231.925
1004  2178.435
1005  2158.458
1006  2281.827
1007  2273.206
1008  2191.42
1009  2016.012
1010  2006.467
1011  2152.313
1012  2244.644
1013  2217.121
1014  2208.063
1015  2233.512
1016  2208.625
1017  2216.663
1018  2279.297
1019  2273.652
1020  2107.001
1021  2095.173
1022  2263.334
1023  2381.727
