# Input file       =  1206100079.114177_cleaned.dat
# Candidate        =  PSR_0332+5434
# Telescope        =  AR
# Epoch_topo       =  58203.491876321496
# Epoch_bary       =  N/A
# T_sample         =  0.002
# Data Folded      =  7340032
# Data Avg         =  0.062309292785022
# Data StdDev      =  1.00024729230187 
# Profile Bins     =  512
# Profile Avg      =  893.187046738849 
# Profile StdDev   =  119.762645434942 
# Reduced chi-sqr  =  1.253
# Prob(Noise)      <  8.41e-05   (~3.8 sigma)
# P_topo (ms)      =  714.572697481119  +/- 0.000392
# P'_topo (s/s)    =  -0                +/- 2.07e-10
# P''_topo (s/s^2) =  0                 +/- 9.13e-14
# P_bary (ms)      =  N/A
# P'_bary (s/s)    =  N/A
# P''_bary (s/s^2) =  N/A
# P_orb (s)        =  N/A
# asin(i)/c (s)    =  N/A
# eccentricity     =  N/A
# w (rad)          =  N/A
# T_peri           =  N/A
######################################################
   0  1414.427
   1  1481.704
   2  1285.044
   3  1064.904
   4  969.4494
   5  918.3598
   6  925.2346
   7  914.0898
   8  950.5264
   9  908.9359
  10  874.1299
  11  833.9627
  12  794.4557
  13  858.6711
  14  930.6862
  15  952.8004
  16  942.6393
  17  928.8947
  18  893.4188
  19  878.877
  20  840.784
  21  827.9619
  22  841.5366
  23  868.0307
  24  879.609
  25  888.9508
  26  880.871
  27  883.8004
  28  884.3497
  29  769.8483
  30  690.5101
  31  681.3516
  32  711.9323
  33  700.1772
  34  757.0703
  35  776.4222
  36  820.2034
  37  858.2334
  38  845.192
  39  835.2748
  40  917.2495
  41  916.2399
  42  810.2755
  43  775.4709
  44  832.3774
  45  887.5863
  46  925.1944
  47  970.9719
  48  944.5803
  49  923.5579
  50  911.3856
  51  952.8204
  52  929.7308
  53  892.3865
  54  942.1545
  55  935.4612
  56  1021.586
  57  996.7917
  58  986.9879
  59  1017.415
  60  1020.781
  61  999.2862
  62  887.4407
  63  912.7465
  64  970.755
  65  952.099
  66  1003.501
  67  1010.462
  68  947.6891
  69  965.1378
  70  1027.643
  71  954.3022
  72  909.7361
  73  916.962
  74  889.4783
  75  962.5577
  76  948.9155
  77  910.2885
  78  893.903
  79  860.1201
  80  802.462
  81  866.965
  82  956.5859
  83  921.6063
  84  918.1366
  85  809.93
  86  919.3669
  87  1028.316
  88  942.4559
  89  962.1859
  90  926.1326
  91  919.5311
  92  854.4208
  93  842.3875
  94  917.0209
  95  834.5508
  96  843.2853
  97  901.002
  98  780.5219
  99  813.4361
 100  860.1728
 101  830.3664
 102  863.0006
 103  869.3381
 104  743.6285
 105  760.3184
 106  832.762
 107  861.3367
 108  800.206
 109  786.6765
 110  807.3437
 111  853.2411
 112  873.4149
 113  899.8334
 114  889.4739
 115  790.5486
 116  758.8281
 117  828.5233
 118  894.7837
 119  948.322
 120  956.5809
 121  880.1834
 122  904.1722
 123  926.841
 124  880.8162
 125  931.8548
 126  921.4745
 127  869.5137
 128  916.7499
 129  902.7521
 130  882.564
 131  822.0767
 132  840.7147
 133  916.6071
 134  899.6931
 135  846.3554
 136  860.0801
 137  931.2862
 138  903.3239
 139  901.284
 140  966.7544
 141  901.8148
 142  889.9409
 143  915.1375
 144  985.123
 145  997.5892
 146  1019.89
 147  1046.521
 148  1041.83
 149  1055.259
 150  985.1044
 151  961.9229
 152  977.8639
 153  988.5005
 154  1066.489
 155  1103.977
 156  1077.909
 157  1063.099
 158  1001.331
 159  983.0814
 160  952.4716
 161  982.7158
 162  1089.348
 163  1029.071
 164  1031.921
 165  997.8759
 166  930.1471
 167  923.8174
 168  947.3754
 169  940.5974
 170  919.3399
 171  855.0969
 172  913.002
 173  907.5139
 174  853.1501
 175  852.7531
 176  884.4745
 177  922.0318
 178  910.5344
 179  938.0798
 180  928.431
 181  805.1082
 182  767.3798
 183  783.0262
 184  847.3737
 185  856.6243
 186  921.5906
 187  862.3812
 188  937.1902
 189  876.0808
 190  875.7214
 191  887.2363
 192  936.4791
 193  907.5983
 194  931.6505
 195  915.0126
 196  895.8622
 197  979.8693
 198  958.5008
 199  923.5349
 200  890.0994
 201  996.1049
 202  942.0897
 203  849.7192
 204  860.1457
 205  922.6813
 206  881.1612
 207  934.1912
 208  922.6539
 209  989.9598
 210  1060.111
 211  934.2849
 212  906.0798
 213  884.0969
 214  874.2117
 215  904.3527
 216  910.9769
 217  947.9539
 218  970.5706
 219  1061.475
 220  1017.983
 221  929.7808
 222  862.161
 223  836.8118
 224  824.2658
 225  907.8116
 226  930.0876
 227  901.474
 228  938.4077
 229  885.9948
 230  894.4083
 231  892.1064
 232  934.8882
 233  919.1935
 234  788.9479
 235  810.0181
 236  891.024
 237  980.4704
 238  913.2114
 239  822.574
 240  862.8505
 241  839.2612
 242  795.4363
 243  757.9706
 244  792.2182
 245  818.2975
 246  875.8698
 247  769.7108
 248  827.6784
 249  811.4203
 250  802.3318
 251  797.1931
 252  847.0344
 253  848.1677
 254  759.6541
 255  789.1727
 256  831.2368
 257  769.4013
 258  730.6932
 259  772.6815
 260  746.0224
 261  680.2894
 262  696.6352
 263  666.8261
 264  623.0203
 265  695.8599
 266  729.2347
 267  747.5181
 268  722.7716
 269  709.525
 270  690.3806
 271  698.9534
 272  750.5726
 273  746.1786
 274  721.7316
 275  688.3001
 276  754.7745
 277  737.659
 278  677.8354
 279  733.3864
 280  718.3624
 281  801.5697
 282  771.4641
 283  886.8901
 284  823.114
 285  851.4589
 286  868.3409
 287  841.5991
 288  922.308
 289  944.6211
 290  821.7396
 291  812.5341
 292  872.6807
 293  931.2039
 294  920.1142
 295  904.933
 296  968.8058
 297  973.6451
 298  953.8876
 299  893.0016
 300  913.2892
 301  932.1548
 302  955.6329
 303  936.6783
 304  892.5865
 305  921.1888
 306  948.824
 307  902.4933
 308  859.2313
 309  905.7073
 310  846.1164
 311  883.2433
 312  929.6731
 313  859.5981
 314  883.6049
 315  871.8917
 316  855.5372
 317  809.5138
 318  795.6704
 319  841.3212
 320  848.4078
 321  855.8134
 322  875.2496
 323  898.9282
 324  865.0532
 325  815.1796
 326  875.2253
 327  845.2255
 328  847.6832
 329  825.6469
 330  829.1337
 331  826.6899
 332  793.0851
 333  838.7333
 334  849.4296
 335  799.1595
 336  813.4628
 337  720.7777
 338  718.6558
 339  790.1973
 340  857.004
 341  831.0059
 342  806.2554
 343  848.2
 344  903.6759
 345  872.6462
 346  826.0555
 347  860.342
 348  836.941
 349  815.8551
 350  861.8558
 351  950.608
 352  986.0964
 353  929.1181
 354  879.511
 355  910.3147
 356  934.6788
 357  969.9354
 358  996.3988
 359  996.7138
 360  960.7872
 361  928.6777
 362  889.7154
 363  907.9609
 364  899.4958
 365  925.5478
 366  839.1065
 367  900.6995
 368  916.5767
 369  919.1481
 370  920.7899
 371  964.0927
 372  940.3569
 373  895.826
 374  960.75
 375  1030.825
 376  1040.725
 377  1024.705
 378  995.5433
 379  943.7816
 380  852.4963
 381  886.1763
 382  881.0167
 383  916.8461
 384  969.7128
 385  909.376
 386  902.7402
 387  897.8729
 388  847.5723
 389  821.7595
 390  905.775
 391  913.4175
 392  929.9401
 393  876.5638
 394  915.9131
 395  842.866
 396  756.333
 397  741.377
 398  780.976
 399  681.2672
 400  666.1331
 401  763.3696
 402  807.1936
 403  806.1126
 404  846.2427
 405  811.6105
 406  713.6238
 407  676.5659
 408  768.6448
 409  775.4753
 410  807.7352
 411  830.6345
 412  771.2067
 413  719.9139
 414  787.7162
 415  828.0837
 416  761.1708
 417  686.6732
 418  778.2953
 419  829.882
 420  872.9766
 421  844.9409
 422  871.1755
 423  942.0623
 424  976.8543
 425  898.528
 426  932.6839
 427  971.847
 428  921.3654
 429  799.2599
 430  883.618
 431  914.1566
 432  902.1324
 433  921.9119
 434  857.194
 435  890.1528
 436  885.2
 437  915.0817
 438  932.3307
 439  941.0107
 440  843.2441
 441  871.4707
 442  905.9935
 443  891.7953
 444  872.0399
 445  819.6056
 446  800.0981
 447  868.2219
 448  844.8326
 449  935.6662
 450  1000.017
 451  1011.231
 452  923.368
 453  912.4378
 454  1031.758
 455  980.3429
 456  975.7413
 457  1029.691
 458  959.6838
 459  975.0085
 460  1038.237
 461  983.0038
 462  913.7912
 463  945.8575
 464  975.8542
 465  921.0529
 466  946.0511
 467  1007.838
 468  978.2888
 469  882.3198
 470  876.3898
 471  979.2625
 472  1043.073
 473  1010.091
 474  1024.991
 475  1016.9
 476  935.0132
 477  873.1965
 478  848.3713
 479  829.4022
 480  937.5192
 481  891.2594
 482  942.4703
 483  925.163
 484  905.9834
 485  939.4247
 486  949.0527
 487  958.4482
 488  970.6718
 489  978.6887
 490  873.441
 491  875.7006
 492  968.5296
 493  1036.463
 494  935.2975
 495  903.1098
 496  894.6317
 497  805.6983
 498  856.757
 499  971.8657
 500  985.3481
 501  923.735
 502  921.734
 503  974.1492
 504  1022.441
 505  1046.113
 506  1071.015
 507  1048.128
 508  1052.796
 509  1155.539
 510  1290.091
 511  1390.129
