# Input file       =  1206444813.112411_cleaned.dat
# Candidate        =  PSR_0332+5434
# Telescope        =  AR
# Epoch_topo       =  58207.481853152902
# Epoch_bary       =  N/A
# T_sample         =  0.002
# Data Folded      =  7340032
# Data Avg         =  0.591438275927171
# Data StdDev      =  6.17327019222834 
# Profile Bins     =  512
# Profile Avg      =  8478.46666859798 
# Profile StdDev   =  739.144384489681 
# Reduced chi-sqr  =  0.596
# Prob(Noise)      <  1   (~0.0 sigma)
# P_topo (ms)      =  714.570537217296  +/- 0.000766
# P'_topo (s/s)    =  -0                +/- 4.04e-10
# P''_topo (s/s^2) =  0                 +/- 1.79e-13
# P_bary (ms)      =  N/A
# P'_bary (s/s)    =  N/A
# P''_bary (s/s^2) =  N/A
# P_orb (s)        =  N/A
# asin(i)/c (s)    =  N/A
# eccentricity     =  N/A
# w (rad)          =  N/A
# T_peri           =  N/A
######################################################
   0  7673.505
   1  7838.576
   2  8063.774
   3  7693.565
   4  8141.187
   5  7967.083
   6  8271.006
   7  8423.354
   8  8130.32
   9  8401.681
  10  8624.045
  11  7991.14
  12  7958.248
  13  8294.43
  14  8541.666
  15  8282.453
  16  8366.995
  17  8521.144
  18  8244.718
  19  7825.462
  20  7761.793
  21  7846.901
  22  8301.926
  23  8453.58
  24  8430.803
  25  8537.492
  26  8821.398
  27  8773.685
  28  8642.671
  29  8182.586
  30  8364.404
  31  8561.309
  32  8537.229
  33  8288.203
  34  8612.663
  35  8516.683
  36  8218.539
  37  8112.054
  38  7767.691
  39  8129.909
  40  8306.878
  41  8426.551
  42  8340.294
  43  8618.948
  44  8218.204
  45  8052.239
  46  7905.945
  47  8033.194
  48  7915.987
  49  7889.283
  50  8408.659
  51  8531.239
  52  8376.253
  53  8200.952
  54  8248.423
  55  8066.457
  56  7704.357
  57  7947.102
  58  7938.469
  59  7980.921
  60  8022.553
  61  8242.163
  62  8363.628
  63  8226.264
  64  8070.275
  65  8071.21
  66  7900.718
  67  8134.466
  68  8247.47
  69  8401.07
  70  8207.522
  71  8059.114
  72  8020.22
  73  7969.204
  74  8178.082
  75  8361.872
  76  8583.439
  77  8405.792
  78  8571.83
  79  8698.438
  80  8854.448
  81  8492.35
  82  8328.807
  83  8443.647
  84  8314.811
  85  8163.663
  86  8575.952
  87  8355.484
  88  8324.285
  89  8700.473
  90  9008.805
  91  8707.509
  92  8751.59
  93  8509.748
  94  8452.842
  95  8623.439
  96  8802.532
  97  8909.104
  98  8614.383
  99  8656.827
 100  8660.723
 101  8138.11
 102  7965.11
 103  8076.191
 104  8195.675
 105  8372.877
 106  8479.396
 107  8115.146
 108  8249.724
 109  8143.684
 110  7843.003
 111  8141.711
 112  8442.426
 113  8448.424
 114  8443.922
 115  8696.71
 116  8733.508
 117  8652.7
 118  8560.37
 119  8428.985
 120  8643.869
 121  8509.494
 122  8966.438
 123  8884.458
 124  8682.081
 125  8692.417
 126  8581.78
 127  8723.251
 128  8680.717
 129  8808.089
 130  8936.534
 131  8567.465
 132  8844.082
 133  8573.61
 134  8252.608
 135  8492.204
 136  8312.422
 137  8178.383
 138  7796.337
 139  7638.172
 140  7483.688
 141  7561.108
 142  7870.865
 143  8023.5
 144  8025.757
 145  8177.827
 146  8295.11
 147  8013.348
 148  8171.068
 149  8600.031
 150  8430.06
 151  8373.503
 152  8566.836
 153  8520.357
 154  7898.618
 155  8063.05
 156  8129.27
 157  8267.782
 158  8271.157
 159  8379.694
 160  7952.503
 161  7620.663
 162  8014.155
 163  7991.711
 164  7982.932
 165  8220.594
 166  7928.002
 167  7685.699
 168  7706.381
 169  8126.269
 170  8287.09
 171  8457.518
 172  8403.449
 173  8713.888
 174  8718.726
 175  8324.332
 176  8703.73
 177  8745.625
 178  8675.198
 179  8852.327
 180  8717.676
 181  8528.605
 182  8201.574
 183  8069.028
 184  8378.935
 185  8415.316
 186  9108.409
 187  8958.741
 188  8788.766
 189  8386.182
 190  8530.097
 191  8997.158
 192  8626.604
 193  8731.042
 194  8674.277
 195  8516.784
 196  8129.505
 197  8308.214
 198  8670.887
 199  8616.147
 200  8866.795
 201  8512.48
 202  8278.545
 203  8320.208
 204  8423.965
 205  8239.288
 206  8207.221
 207  8613.941
 208  8613.415
 209  8632.008
 210  8304.797
 211  8349.581
 212  8030.23
 213  8081.088
 214  8050.775
 215  8192.113
 216  8342.694
 217  8604.431
 218  8810.77
 219  8282.461
 220  8258.203
 221  8238.849
 222  8479.42
 223  8249.068
 224  8399.227
 225  8792.157
 226  8716.062
 227  8565.212
 228  8543.674
 229  8637.898
 230  8414.464
 231  8552.679
 232  8673.782
 233  8559.959
 234  8582.729
 235  8685.25
 236  8515.237
 237  8779.131
 238  8555.566
 239  8529.112
 240  8680.82
 241  8234.927
 242  8368.459
 243  7975.729
 244  8267.388
 245  8090.562
 246  8410.198
 247  8517.368
 248  7863.922
 249  7983.271
 250  8478.231
 251  8397.45
 252  8535.212
 253  8801.328
 254  8643.447
 255  8837.484
 256  8688.828
 257  8430.4
 258  8196.661
 259  8360.983
 260  8459.31
 261  8440.643
 262  8417.446
 263  8429.57
 264  8455.891
 265  8359.977
 266  8465.59
 267  8422.569
 268  8543.293
 269  8721.188
 270  9032.964
 271  8679.387
 272  8518.746
 273  8767.508
 274  8877.206
 275  8817.079
 276  8723.613
 277  8589.179
 278  9037.731
 279  8705.781
 280  8683.507
 281  8855.338
 282  9697.454
 283  10328.71
 284  10558.11
 285  10550.41
 286  10439.51
 287  10000.77
 288  8903.283
 289  8430.038
 290  8590.879
 291  8476.756
 292  8749.358
 293  9035.541
 294  8939.769
 295  8858.909
 296  8808.589
 297  8665.229
 298  8975.044
 299  9259.457
 300  9645.802
 301  9512.883
 302  8955.89
 303  8646.231
 304  8676.666
 305  9020.41
 306  8987.351
 307  8716.296
 308  8943.949
 309  8894.228
 310  8697.184
 311  8281.221
 312  8420.744
 313  8332.936
 314  8631.88
 315  8869.092
 316  8738.147
 317  8710.407
 318  8686.215
 319  8944.17
 320  9085.928
 321  8782.886
 322  8639.842
 323  8880.153
 324  8650.195
 325  8519.763
 326  8476.04
 327  8358.469
 328  8906.156
 329  8940.284
 330  8475.179
 331  8516.264
 332  8614.431
 333  8558.597
 334  8680.693
 335  8811.124
 336  8877.796
 337  8667.763
 338  8838.731
 339  8848.846
 340  8570.684
 341  8714.84
 342  9016.427
 343  8760.254
 344  8781.414
 345  8746.308
 346  8704.423
 347  8561.012
 348  8330.428
 349  8007.386
 350  8563.205
 351  8512.727
 352  8483.109
 353  8564.803
 354  8290.705
 355  7986.303
 356  7965.266
 357  8077.617
 358  7940.976
 359  7861.703
 360  8103.765
 361  7934.963
 362  7939.317
 363  7953.542
 364  7756.67
 365  7924.445
 366  8278.201
 367  8180.31
 368  7632.7
 369  7781.483
 370  7737.641
 371  7624.651
 372  7441.271
 373  7796.057
 374  8173.888
 375  8302.219
 376  8375.975
 377  8258.312
 378  8499.816
 379  8042.615
 380  7734.142
 381  7749.694
 382  8214.794
 383  8419.743
 384  8550.067
 385  8197.068
 386  7557.148
 387  8070.035
 388  8427.267
 389  8424.203
 390  8471.194
 391  8574.074
 392  8779.879
 393  8830.63
 394  9156.973
 395  9097.259
 396  9107.902
 397  9130.546
 398  9000.663
 399  8893.458
 400  9000.466
 401  8907.484
 402  8627.772
 403  8591.444
 404  8632.618
 405  8349.514
 406  8133.305
 407  8307.11
 408  8486.611
 409  8577.59
 410  8595.788
 411  8876.198
 412  8625.202
 413  8452.857
 414  8448.454
 415  8521.276
 416  8696.559
 417  8857.342
 418  9085.691
 419  9171.31
 420  8975.491
 421  8836.069
 422  9202.689
 423  9028.954
 424  9284.085
 425  8941.251
 426  8478.713
 427  8975.228
 428  9402.952
 429  9005.748
 430  8922.163
 431  8931.717
 432  8901.684
 433  8650.561
 434  8961.141
 435  8950.812
 436  8635.205
 437  8595.872
 438  8736.617
 439  8667.518
 440  8528.036
 441  8663.111
 442  8817.417
 443  8978.072
 444  8768.843
 445  8817.046
 446  8742.19
 447  8881.173
 448  8671.182
 449  8695.145
 450  8639.532
 451  8403.04
 452  8178.37
 453  8684.777
 454  8745.353
 455  8424.746
 456  8539.037
 457  8419.259
 458  8141.91
 459  8301.395
 460  8319.375
 461  8301.766
 462  8377.392
 463  8564.78
 464  8432.737
 465  8596.703
 466  8624.79
 467  8223.026
 468  8552.525
 469  8895.634
 470  8790.264
 471  8577.78
 472  8374.623
 473  8416.902
 474  8512.796
 475  8920.497
 476  9038.154
 477  8780.209
 478  8872.56
 479  8993.025
 480  8950.396
 481  8749.472
 482  8869.112
 483  8732.08
 484  9093.294
 485  9063.435
 486  8998.455
 487  8948.032
 488  8730.045
 489  8628.936
 490  8633.281
 491  8340.942
 492  8395.433
 493  8347.034
 494  8279.876
 495  8587.142
 496  8264.19
 497  7842.569
 498  7884.461
 499  8024.941
 500  8266.037
 501  8308.642
 502  8267.954
 503  8275.643
 504  7711.85
 505  7617.751
 506  7687.263
 507  7838.623
 508  7895.608
 509  7507.621
 510  7835.413
 511  7949.256
