# Input file       =  1206444813.112411_cleaned.dat
# Candidate        =  PSR_0332+5434
# Telescope        =  AR
# Epoch_topo       =  58207.481853152902
# Epoch_bary       =  N/A
# T_sample         =  0.002
# Data Folded      =  7340032
# Data Avg         =  0.591438275927171
# Data StdDev      =  6.17327019222834 
# Profile Bins     =  512
# Profile Avg      =  8478.46666856226 
# Profile StdDev   =  739.144384489681 
# Reduced chi-sqr  =  0.594
# Prob(Noise)      <  1   (~0.0 sigma)
# P_topo (ms)      =  714.570537026461  +/- 0.000766
# P'_topo (s/s)    =  -0                +/- 4.04e-10
# P''_topo (s/s^2) =  0                 +/- 1.79e-13
# P_bary (ms)      =  N/A
# P'_bary (s/s)    =  N/A
# P''_bary (s/s^2) =  N/A
# P_orb (s)        =  N/A
# asin(i)/c (s)    =  N/A
# eccentricity     =  N/A
# w (rad)          =  N/A
# T_peri           =  N/A
######################################################
   0  8425.458
   1  8515.766
   2  8075.424
   3  7805.897
   4  8007.97
   5  8042.295
   6  8362.077
   7  8211.449
   8  8366.686
   9  8008.388
  10  7604.475
  11  7661.524
  12  7732.18
  13  7966.837
  14  7698.348
  15  7590.214
  16  7886.232
  17  7879.637
  18  7656.409
  19  7998.021
  20  7904.81
  21  7824.669
  22  8169.625
  23  7972.125
  24  8496.85
  25  8198.055
  26  8226.374
  27  8557.589
  28  8433.629
  29  7860.607
  30  8109.026
  31  8404.253
  32  8484.906
  33  8275.526
  34  8450.788
  35  8479.572
  36  7967.927
  37  7840.315
  38  7691.312
  39  8083.227
  40  8385.423
  41  8444.583
  42  8429.893
  43  8691.83
  44  8828.038
  45  8788.069
  46  8365.373
  47  8229.656
  48  8392.505
  49  8645.486
  50  8332.76
  51  8496.807
  52  8641.024
  53  8356.905
  54  8196.597
  55  7973.905
  56  7854.367
  57  8265.245
  58  8342.262
  59  8330.084
  60  8477.357
  61  8513.349
  62  8121.949
  63  7971.638
  64  7953.355
  65  7978.428
  66  7859.376
  67  8111.167
  68  8542.148
  69  8439.801
  70  8272.763
  71  8262.484
  72  8188.177
  73  7875.064
  74  7773.634
  75  7963.237
  76  7941.504
  77  8037.56
  78  8087.906
  79  8256.037
  80  8401.767
  81  8011.693
  82  8225.427
  83  7912.039
  84  8051.084
  85  8137.729
  86  8368.42
  87  8335.591
  88  8124.229
  89  8059.564
  90  7945.396
  91  8055.428
  92  8177.244
  93  8507.178
  94  8538.543
  95  8440.942
  96  8641.12
  97  8800.062
  98  8751.88
  99  8356.44
 100  8415.15
 101  8431.562
 102  8159.949
 103  8337.404
 104  8502.672
 105  8291.569
 106  8459.975
 107  8883.768
 108  8932.717
 109  8655.615
 110  8755.387
 111  8376.514
 112  8561.864
 113  8710.365
 114  8860.51
 115  8831.211
 116  8526.85
 117  8764.212
 118  8448.843
 119  7982.43
 120  8041.616
 121  8089.792
 122  8291.86
 123  8418.214
 124  8386.462
 125  8066.1
 126  8304.787
 127  7976.908
 128  7890.48
 129  8307.286
 130  8464.608
 131  8434.657
 132  8534.575
 133  8740.875
 134  8701.353
 135  8677.882
 136  8386.71
 137  8633.069
 138  8486.562
 139  8698.745
 140  9020.192
 141  8768.41
 142  8658.797
 143  8648.251
 144  8643.965
 145  8726.77
 146  8684.81
 147  8972.989
 148  8713.276
 149  8659.335
 150  8838.306
 151  8339.812
 152  8341.502
 153  8462.78
 154  8235.463
 155  8045.526
 156  7690.71
 157  7596.617
 158  7466.532
 159  7677.909
 160  7980.496
 161  8010.338
 162  8045.387
 163  8319.511
 164  8179.318
 165  7990.276
 166  8341.863
 167  8637.863
 168  8264.072
 169  8524.823
 170  8639.812
 171  8274.972
 172  7864.705
 173  8104.407
 174  8209.666
 175  8220.286
 176  8368.658
 177  8282.82
 178  7722.256
 179  7726.377
 180  8087.668
 181  7899.91
 182  8175.789
 183  8108.443
 184  7822.794
 185  7625.069
 186  7918.356
 187  8196.208
 188  8337.552
 189  8485.765
 190  8442.03
 191  8862.775
 192  8460.934
 193  8475.616
 194  8771.017
 195  8695.012
 196  8755.44
 197  8816.05
 198  8638.824
 199  8378.105
 200  8080.438
 201  8201.149
 202  8403.736
 203  8654.486
 204  9188.563
 205  8831.419
 206  8622.678
 207  8370.31
 208  8764.035
 209  8903.132
 210  8575.751
 211  8784.166
 212  8630.699
 213  8361.167
 214  8072.948
 215  8518.812
 216  8642.422
 217  8766.632
 218  8764.682
 219  8344.969
 220  8300.331
 221  8378.985
 222  8345.506
 223  8181.146
 224  8361.653
 225  8642.646
 226  8674.391
 227  8482.91
 228  8315.088
 229  8189.183
 230  8051.106
 231  8037.564
 232  8131.799
 233  8244.065
 234  8429.45
 235  8766.917
 236  8591.216
 237  8212.172
 238  8224.17
 239  8416.472
 240  8362.922
 241  8271.75
 242  8541.194
 243  8903.336
 244  8578.274
 245  8578.024
 246  8537.028
 247  8600.352
 248  8359.401
 249  8689.557
 250  8659.464
 251  8525.143
 252  8690.861
 253  8568.559
 254  8605.801
 255  8691.087
 256  8530.661
 257  8614.516
 258  8488.763
 259  8297.25
 260  8179.133
 261  8111.138
 262  8182.698
 263  8167.614
 264  8592.023
 265  8251.741
 266  7799.54
 267  8171.721
 268  8527.421
 269  8409.881
 270  8655.657
 271  8755.339
 272  8721.345
 273  8805.261
 274  8614.912
 275  8235.271
 276  8319.535
 277  8360.077
 278  8452.318
 279  8435.879
 280  8471.936
 281  8473.66
 282  8344.636
 283  8422.98
 284  8459.868
 285  8401.074
 286  8621.491
 287  8900.039
 288  8913.55
 289  8529.581
 290  8616.497
 291  8877.717
 292  8818.26
 293  8808.829
 294  8619.34
 295  8777.911
 296  8973.238
 297  8660.227
 298  8692.54
 299  9184.428
 300  9991.759
 301  10445.2
 302  10555.7
 303  10542.89
 304  10379.07
 305  9524.228
 306  8580.911
 307  8512.44
 308  8497.94
 309  8570.75
 310  8928.436
 311  8983.277
 312  8898.75
 313  8872.973
 314  8732.648
 315  8752.513
 316  9113.809
 317  9356.902
 318  9742.546
 319  9236.088
 320  8830.748
 321  8565.058
 322  8858.04
 323  9061.231
 324  8883.564
 325  8751.002
 326  9021.522
 327  8741.915
 328  8562.164
 329  8244.479
 330  8460.749
 331  8363.136
 332  8814.102
 333  8822.814
 334  8705.057
 335  8712.523
 336  8749.423
 337  9071.716
 338  8960.07
 339  8686.568
 340  8694.802
 341  8907.34
 342  8454.861
 343  8613.67
 344  8313.853
 345  8578.237
 346  9001.427
 347  8807.872
 348  8386.996
 349  8630.985
 350  8513.56
 351  8632.188
 352  8706.514
 353  8875.575
 354  8857.859
 355  8655.229
 356  8913.195
 357  8708.95
 358  8558.68
 359  8910.722
 360  8900.141
 361  8742.185
 362  8733.122
 363  8861.623
 364  8531.79
 365  8610.509
 366  8030.557
 367  8261.262
 368  8590.005
 369  8481.207
 370  8583.079
 371  8467.191
 372  8072.505
 373  7986.122
 374  7984.53
 375  8125.423
 376  7781.079
 377  8050.697
 378  7988.859
 379  7916.191
 380  7977.427
 381  7847.641
 382  7836.991
 383  8060.099
 384  8344.8
 385  7885.769
 386  7660.425
 387  7760.115
 388  7747.955
 389  7500.949
 390  7533.058
 391  7986.694
 392  8242.916
 393  8378.707
 394  8280.293
 395  8386.951
 396  8359.675
 397  7885.112
 398  7672.739
 399  7955.496
 400  8314.509
 401  8453.685
 402  8518.349
 403  7862.719
 404  7628.689
 405  8334.08
 406  8409.392
 407  8459.168
 408  8490.146
 409  8687.334
 410  8746.888
 411  8978.312
 412  9213.915
 413  9066.499
 414  9169.785
 415  9071.01
 416  8940.767
 417  8908.653
 418  9044.177
 419  8717.029
 420  8602.204
 421  8638.294
 422  8541.632
 423  8249.202
 424  8111.187
 425  8400.94
 426  8552.068
 427  8582.728
 428  8737.556
 429  8806.323
 430  8493.611
 431  8484.143
 432  8386.078
 433  8677.18
 434  8698.642
 435  9012.123
 436  9117.232
 437  9157.115
 438  8807.726
 439  9043.949
 440  9134.116
 441  9065.244
 442  9280.429
 443  8645.458
 444  8582.646
 445  9253.119
 446  9329.218
 447  8888.424
 448  8927.564
 449  8899.012
 450  8864.79
 451  8682.035
 452  9067.143
 453  8768.908
 454  8552.21
 455  8665.477
 456  8745.903
 457  8615.677
 458  8538.343
 459  8774.795
 460  8883.24
 461  8903.044
 462  8792.425
 463  8745.058
 464  8837.396
 465  8776.016
 466  8702.013
 467  8663.106
 468  8570.584
 469  8272.738
 470  8300.679
 471  8848.562
 472  8560.833
 473  8452.993
 474  8533.58
 475  8317.696
 476  8163.711
 477  8337.58
 478  8315.642
 479  8324.089
 480  8432.797
 481  8543.163
 482  8430.74
 483  8722.765
 484  8369.175
 485  8336.9
 486  8678.24
 487  8893.145
 488  8682.024
 489  8532.317
 490  8415.888
 491  8413.417
 492  8651.832
 493  9070.862
 494  8860.773
 495  8813.581
 496  8889.31
 497  9060.541
 498  8771.203
 499  8857.427
 500  8814.744
 501  8823.084
 502  9174.401
 503  8989.033
 504  9000.795
 505  8855.896
 506  8691.138
 507  8645.021
 508  8519.338
 509  8326.179
 510  8418.979
 511  8255.037
