# Input file       =  1206257845.112525_cleaned.dat
# Candidate        =  PSR_0332+5434
# Telescope        =  AR
# Epoch_topo       =  58205.317871672742
# Epoch_bary       =  N/A
# T_sample         =  0.002
# Data Folded      =  7143424
# Data Avg         =  0.258586550035318
# Data StdDev      =  5.07277613981732 
# Profile Bins     =  1024
# Profile Avg      =  1803.89699093263 
# Profile StdDev   =  423.690702006247 
# Reduced chi-sqr  =  3.049
# Prob(Noise)      <  2.97e-210   (~30.9 sigma)
# P_topo (ms)      =  714.571717844486  +/- 1.61e-05
# P'_topo (s/s)    =  -0                +/- 8.74e-12
# P''_topo (s/s^2) =  0                 +/- 3.96e-15
# P_bary (ms)      =  N/A
# P'_bary (s/s)    =  N/A
# P''_bary (s/s^2) =  N/A
# P_orb (s)        =  N/A
# asin(i)/c (s)    =  N/A
# eccentricity     =  N/A
# w (rad)          =  N/A
# T_peri           =  N/A
######################################################
   0  1411.699
   1  1373.781
   2  1509.886
   3  1698.599
   4  1656.866
   5  1933.59
   6  1876.496
   7  1787.223
   8  1530.128
   9  1331.522
  10  1300.969
  11  1122.469
  12  1083.963
  13  1048.684
  14  1063.403
  15  1109.677
  16  1232.846
  17  1413.497
  18  1698.57
  19  1844.116
  20  2190.229
  21  2215.236
  22  2384.485
  23  2414.314
  24  2317.214
  25  2112.577
  26  1907.334
  27  1939.099
  28  1837.443
  29  1479.147
  30  1336.384
  31  1226.341
  32  1319.64
  33  1405.045
  34  1493.677
  35  1655.928
  36  1806.015
  37  1999.745
  38  2234.258
  39  2061.034
  40  1972.335
  41  1667.612
  42  1508.213
  43  1361.704
  44  1334.338
  45  1254.122
  46  1057.614
  47  865.861
  48  974.5878
  49  1133.113
  50  1439.475
  51  1707.375
  52  1922.441
  53  2215.903
  54  2307.811
  55  2617.028
  56  2600.478
  57  2536.28
  58  2409.915
  59  2092.841
  60  1910.112
  61  1707.411
  62  1698.654
  63  1542.223
  64  1425.137
  65  1358.293
  66  1458.863
  67  1363.037
  68  1471.961
  69  1493.402
  70  1730.123
  71  1912.024
  72  1952.66
  73  1907.331
  74  1625.04
  75  1632.503
  76  1568.403
  77  1479.422
  78  1402.77
  79  1344.19
  80  1231.743
  81  1234.162
  82  1274.381
  83  1485.238
  84  1607.051
  85  2028.141
  86  2302.468
  87  2418.359
  88  2503.656
  89  2444.825
  90  2512.572
  91  2342.904
  92  2236.647
  93  2095.735
  94  1795.023
  95  1743.675
  96  1786.015
  97  1778.993
  98  1717.747
  99  1521.61
 100  1623.663
 101  1719.769
 102  1665.302
 103  1934.049
 104  1936.848
 105  2048.32
 106  1772.365
 107  1612.315
 108  1525.321
 109  1200.745
 110  1163.498
 111  1175.467
 112  1175.093
 113  1163.231
 114  1163.225
 115  1274.613
 116  1318.749
 117  1421.646
 118  1916.782
 119  2080.445
 120  2421.518
 121  2555.668
 122  2728.445
 123  2676.693
 124  2386.17
 125  2330.073
 126  2162.719
 127  1798.563
 128  1655.256
 129  1556.982
 130  1565.692
 131  1530.985
 132  1396.848
 133  1593.833
 134  1508.753
 135  1738.351
 136  1799.795
 137  1892.017
 138  2082.266
 139  1972.284
 140  1850.132
 141  1484.548
 142  1372.314
 143  1468.175
 144  1542.977
 145  1517.19
 146  1501.404
 147  1396.672
 148  1438.445
 149  1449.874
 150  1559.064
 151  1840.1
 152  2012.579
 153  2436.955
 154  2460.816
 155  2492.119
 156  2398.236
 157  2189.34
 158  2141.758
 159  1887.138
 160  2002.665
 161  1823.147
 162  1605.265
 163  1536.455
 164  1624.393
 165  1680.793
 166  1671.044
 167  1647.927
 168  1872.37
 169  1858.82
 170  2020.603
 171  1987.584
 172  1880.702
 173  1707.83
 174  1396.848
 175  1310.556
 176  1264.338
 177  1323.894
 178  1235.855
 179  1133.543
 180  1149.757
 181  1212.142
 182  1256.753
 183  1482.867
 184  1781.366
 185  2053.874
 186  2455.369
 187  2722.302
 188  2852.696
 189  2526.289
 190  2416.984
 191  2249.747
 192  2141.492
 193  1954.171
 194  1736.862
 195  1652.792
 196  1554.38
 197  1585.82
 198  1630.913
 199  1638.259
 200  1649.582
 201  1749.679
 202  1883.445
 203  2115.146
 204  2096.508
 205  2028.516
 206  1755.843
 207  1512.705
 208  1428.578
 209  1328.398
 210  1317.861
 211  1269.661
 212  1435.298
 213  1477.386
 214  1460.586
 215  1491.013
 216  1813.596
 217  1944.095
 218  2193.727
 219  2274.996
 220  2491.082
 221  2518.887
 222  2372.184
 223  2451.28
 224  2265.097
 225  2169.849
 226  2017.889
 227  2015.563
 228  2107.287
 229  1946.715
 230  1754.581
 231  1647.687
 232  1548.938
 233  1734.359
 234  1860.698
 235  1942.378
 236  1947.267
 237  1882.921
 238  2074.159
 239  1813.592
 240  1678.805
 241  1514.283
 242  1289.954
 243  1283.059
 244  1213.996
 245  1293.192
 246  1263.539
 247  1348.136
 248  1628.255
 249  1839.286
 250  1962.064
 251  2292.214
 252  2424.298
 253  2673.922
 254  2544.375
 255  2587.887
 256  2523.652
 257  2303.671
 258  2289.015
 259  2110.873
 260  1907.411
 261  1663.132
 262  1550.561
 263  1641.436
 264  1511.658
 265  1431.957
 266  1574.796
 267  1609.755
 268  1871.232
 269  1905.446
 270  2055.908
 271  2117.38
 272  1865.829
 273  1762.432
 274  1448.429
 275  1465.341
 276  1446.501
 277  1331.267
 278  1313.332
 279  1221.413
 280  1175.997
 281  1323.631
 282  1388.752
 283  1618.884
 284  1890.48
 285  2315.729
 286  2720.458
 287  2672.224
 288  2679.607
 289  2393.53
 290  2240.785
 291  2068.235
 292  1813.614
 293  1773.308
 294  1548.138
 295  1503.568
 296  1501.707
 297  1571.715
 298  1653.988
 299  1655.513
 300  1801.655
 301  2094.565
 302  2161.953
 303  2195.889
 304  1983.206
 305  1838.556
 306  1749.009
 307  1703.492
 308  1735.316
 309  1579.538
 310  1408.636
 311  1333.935
 312  1235.268
 313  1315.289
 314  1392.594
 315  1608.596
 316  1914.439
 317  2235.623
 318  2545.344
 319  2648.419
 320  2692.348
 321  2644.711
 322  2281.209
 323  2096.666
 324  1933.824
 325  1860.332
 326  1726.394
 327  1655.308
 328  1752.227
 329  1594.904
 330  1633.999
 331  1700.28
 332  1749.505
 333  1764.054
 334  1881.716
 335  2108.888
 336  2186.129
 337  1950.144
 338  1827.596
 339  1531.982
 340  1418.275
 341  1317.293
 342  1332.16
 343  1447.601
 344  1359.059
 345  1284.638
 346  1253.837
 347  1295.7
 348  1453.156
 349  1728.634
 350  2090.882
 351  2266.67
 352  2195.905
 353  2305.601
 354  2305.114
 355  2226.312
 356  2182.328
 357  1990.354
 358  1944.47
 359  1765.168
 360  1818.255
 361  1819.397
 362  1638.164
 363  1633.505
 364  1636.24
 365  1652.103
 366  1638.122
 367  1577.114
 368  1652.3
 369  1639.348
 370  1603.119
 371  1572.086
 372  1383.494
 373  1295.415
 374  1314.427
 375  1331.373
 376  1404.576
 377  1388.611
 378  1361.014
 379  1261.717
 380  1295.481
 381  1667.643
 382  1887.337
 383  2167.616
 384  2285.325
 385  2459.838
 386  2650.796
 387  2504.073
 388  2318.579
 389  1982.856
 390  1922.316
 391  1920.525
 392  1841.107
 393  1778.013
 394  1683.298
 395  1691.09
 396  1724.527
 397  1538.781
 398  1433.828
 399  1547.297
 400  1796.251
 401  2102.104
 402  2106.189
 403  2090.147
 404  1857.115
 405  1642.495
 406  1481.645
 407  1123.834
 408  1132.424
 409  1168.974
 410  1202.012
 411  1209.424
 412  1148.019
 413  1207.108
 414  1350.263
 415  1689.318
 416  2157.918
 417  2244.527
 418  2434.875
 419  2431.326
 420  2432.802
 421  2336.277
 422  2073.427
 423  2004.236
 424  1751.638
 425  1648.758
 426  1655.79
 427  1609.177
 428  1495.668
 429  1354.61
 430  1323.851
 431  1354.16
 432  1422.144
 433  1658.233
 434  1875.527
 435  1872.536
 436  1979.912
 437  1789.839
 438  1606.571
 439  1368.38
 440  1359.978
 441  1387.31
 442  1244.349
 443  1204.682
 444  1215.893
 445  1185.404
 446  1245.687
 447  1409.106
 448  1748.544
 449  2153.319
 450  2415.749
 451  2659.528
 452  2586.733
 453  2563.725
 454  2444.826
 455  2169.618
 456  2005.246
 457  1711.732
 458  1735.019
 459  1560.337
 460  1516.741
 461  1519.44
 462  1444.637
 463  1424.91
 464  1567.912
 465  1722.135
 466  2055.668
 467  1981.341
 468  2132.095
 469  2023.505
 470  1767.202
 471  1623.065
 472  1424.541
 473  1474.023
 474  1436.933
 475  1445.352
 476  1348.429
 477  1060.455
 478  1080.732
 479  1387.722
 480  1707.569
 481  1980.141
 482  2190.219
 483  2477.583
 484  2632.978
 485  2617.752
 486  2632.077
 487  2320.121
 488  2219.503
 489  2219.821
 490  2190.756
 491  2043.973
 492  1690.106
 493  1678.744
 494  1697.281
 495  1663.265
 496  1646.624
 497  1672.544
 498  1860.58
 499  1909.799
 500  2072.816
 501  2161.44
 502  2014.924
 503  1954.714
 504  1735.064
 505  1519.822
 506  1396.287
 507  1501.673
 508  1642.501
 509  1637.826
 510  1473.57
 511  1521.829
 512  1568.143
 513  1693.172
 514  1879.557
 515  2076.106
 516  2348.418
 517  2516.494
 518  2649.91
 519  2525.002
 520  2366.533
 521  2339.978
 522  2236.003
 523  2140.874
 524  1962.915
 525  1793.527
 526  1751.07
 527  1642.036
 528  1698.4
 529  1680.588
 530  1681.404
 531  1845.499
 532  1919.835
 533  2088.726
 534  2154.886
 535  2086.777
 536  1976.722
 537  1649.045
 538  1498.472
 539  1444.542
 540  1342.449
 541  1311.916
 542  1224.003
 543  1298.265
 544  1370.209
 545  1431.251
 546  1674.96
 547  1965.666
 548  2376.033
 549  2700.336
 550  2766.066
 551  2842.644
 552  2550.697
 553  2372.908
 554  2133.17
 555  1938.977
 556  1965.656
 557  1877.81
 558  1707.191
 559  1584.782
 560  1426.374
 561  1607.959
 562  1618.129
 563  1727.121
 564  1781.869
 565  1813.278
 566  2035.916
 567  1992.365
 568  2041.043
 569  1985.633
 570  1742.603
 571  1603.726
 572  1334.013
 573  1403.428
 574  1388.018
 575  1243.505
 576  1252.95
 577  1256.166
 578  1306.854
 579  1468.907
 580  1643.308
 581  1954.521
 582  2083.684
 583  2363.558
 584  2637.416
 585  2569.9
 586  2619.964
 587  2255.316
 588  2179.668
 589  1957.578
 590  1978.703
 591  2002.273
 592  1941.895
 593  1944.788
 594  1835.745
 595  1643.859
 596  1610.063
 597  1604.738
 598  1853.022
 599  2048.267
 600  2182.081
 601  2444.341
 602  2508.666
 603  2550.971
 604  2505.331
 605  2471.763
 606  2414.336
 607  2189.032
 608  2114.661
 609  2109.847
 610  1980.571
 611  1913.939
 612  1914.205
 613  2036.997
 614  2256.838
 615  2477.63
 616  2755.142
 617  2668.271
 618  2562.625
 619  2420.583
 620  2176.597
 621  1978.787
 622  1872.535
 623  1848.338
 624  1771.354
 625  1497.752
 626  1536.909
 627  1493.109
 628  1580.293
 629  1623.728
 630  1736.284
 631  1776.075
 632  1959.031
 633  2251.228
 634  2392.039
 635  2189.733
 636  2121.2
 637  1922.189
 638  1678.612
 639  1467.27
 640  1383.069
 641  1324.44
 642  1215.497
 643  1136.655
 644  1269.977
 645  1418.498
 646  1709.311
 647  2041.644
 648  2362.636
 649  2569.093
 650  2556.12
 651  2634.222
 652  2514.966
 653  2326.309
 654  2180.883
 655  2242.37
 656  2220.555
 657  2043.725
 658  1813.662
 659  1759.157
 660  1546.677
 661  1411.995
 662  1326.007
 663  1390.84
 664  1570.736
 665  1653.896
 666  2078.1
 667  2042.11
 668  1966.014
 669  1782.377
 670  1644.458
 671  1667.882
 672  1489.598
 673  1594.055
 674  1622.712
 675  1586.125
 676  1502.165
 677  1495.237
 678  1526.576
 679  1810.464
 680  1905.634
 681  2315.756
 682  2540.295
 683  2596.915
 684  2599.979
 685  2434.24
 686  2457.294
 687  2332.463
 688  2080.606
 689  1988.519
 690  1711.396
 691  1691.38
 692  1668.732
 693  1688.73
 694  1803.762
 695  1741.377
 696  1830.125
 697  1842.425
 698  2008.703
 699  2155.456
 700  2095.353
 701  2015.847
 702  1732.457
 703  1605.633
 704  1586.229
 705  1532.654
 706  1490.136
 707  1430.49
 708  1363.602
 709  1446.247
 710  1541.099
 711  1751.668
 712  1917.87
 713  2105.292
 714  2331.113
 715  2305.46
 716  2562.926
 717  2670.542
 718  2644.18
 719  2465.218
 720  2219.397
 721  2195.198
 722  1936.139
 723  1853.961
 724  1728.396
 725  1557.105
 726  1358.772
 727  1385.044
 728  1477.161
 729  1664.264
 730  1640.028
 731  1933.453
 732  2045.67
 733  2037.861
 734  1862.709
 735  1630.789
 736  1540.83
 737  1358.756
 738  1340.254
 739  1387.519
 740  1286.77
 741  1317.465
 742  1359.27
 743  1327.669
 744  1465.582
 745  1691.972
 746  2134.462
 747  2297.471
 748  2438.886
 749  2577.161
 750  2514.754
 751  2342.481
 752  2093.95
 753  1947.215
 754  1907.127
 755  1800.59
 756  1790.545
 757  1692.254
 758  1573.814
 759  1705
 760  1708.771
 761  1854.46
 762  1834.742
 763  1992.147
 764  2153.625
 765  2010.994
 766  2022.707
 767  1887.726
 768  1737.243
 769  1508.286
 770  1244.827
 771  1260.929
 772  1250.564
 773  1275.1
 774  1293.543
 775  1279.466
 776  1364.675
 777  1444.957
 778  1605.353
 779  1922.363
 780  2215.138
 781  2651.095
 782  2771.174
 783  2648.28
 784  2473.626
 785  2215.812
 786  2166.932
 787  1945.5
 788  1853.487
 789  1657.551
 790  1411.775
 791  1312.186
 792  1392.374
 793  1373.512
 794  1442.05
 795  1463.141
 796  1704.602
 797  1827.758
 798  1936.99
 799  2162.241
 800  1962.089
 801  1936.371
 802  1677.786
 803  1506.666
 804  1283.305
 805  1210.246
 806  1222.528
 807  1287.454
 808  1215.467
 809  1343.101
 810  1378.253
 811  1687.33
 812  2041.916
 813  2219.935
 814  2449.576
 815  2419.143
 816  2495.878
 817  2318.656
 818  2231.608
 819  2154.298
 820  1983.503
 821  1937.714
 822  1900.884
 823  1806.21
 824  1678.237
 825  1463.508
 826  1391.598
 827  1466.296
 828  1484.424
 829  1709.312
 830  1886.333
 831  2023.922
 832  1959.87
 833  1821.564
 834  1917.55
 835  1731.466
 836  1657.665
 837  1559.132
 838  1495.916
 839  1467.512
 840  1399.575
 841  1332.371
 842  1281.848
 843  1426.173
 844  1739.797
 845  1934.695
 846  2209.591
 847  2601.764
 848  2783.564
 849  2784.619
 850  2521.837
 851  2537.973
 852  2483.226
 853  2329.001
 854  2111.061
 855  1831.431
 856  1695.975
 857  1568.982
 858  1471.325
 859  1552.381
 860  1605.282
 861  1757.322
 862  1860.606
 863  1905.241
 864  2121.862
 865  2000.088
 866  1896.637
 867  1607.494
 868  1376.48
 869  1435.07
 870  1270.591
 871  1352.475
 872  1258.36
 873  1335.651
 874  1302.798
 875  1412.86
 876  1526.269
 877  1804.832
 878  2008.398
 879  2354.264
 880  2287.453
 881  2376.621
 882  2432.588
 883  2525.899
 884  2417.251
 885  2146.96
 886  2162.949
 887  2064.444
 888  1842.329
 889  1668.839
 890  1534.973
 891  1557.29
 892  1602.518
 893  1626.575
 894  1710.109
 895  1651.394
 896  1856.909
 897  2079.761
 898  2134.724
 899  2143.9
 900  1766.282
 901  1492.74
 902  1277.474
 903  1176.074
 904  1159.377
 905  1093.359
 906  1207.646
 907  1409.983
 908  1349.29
 909  1511.581
 910  1709.995
 911  2123.593
 912  2455.926
 913  2647.736
 914  2834.334
 915  2625.455
 916  2557.778
 917  2370.896
 918  2089.271
 919  1895.061
 920  1714.874
 921  1778.298
 922  1687.161
 923  1665.162
 924  1706.938
 925  1619.244
 926  1514.154
 927  1519.055
 928  1636.782
 929  1917.048
 930  1826.727
 931  2021.422
 932  1882.011
 933  1730.281
 934  1471.777
 935  1185.237
 936  1141.14
 937  1016.071
 938  1181.684
 939  1219.538
 940  1331.478
 941  1343.973
 942  1549.319
 943  1579.09
 944  1909.497
 945  2160.607
 946  2361.84
 947  2352.246
 948  2268.13
 949  2402.262
 950  2211.542
 951  1984.848
 952  1752.608
 953  1691.294
 954  1622.724
 955  1579.775
 956  1433.142
 957  1400.585
 958  1254.057
 959  1512.301
 960  1591.81
 961  1646.735
 962  1751.89
 963  1818.648
 964  1890.608
 965  1633.407
 966  1409.303
 967  1446.074
 968  1325.925
 969  1362.972
 970  1177.285
 971  1154.601
 972  1075.373
 973  1125.192
 974  1208.081
 975  1360.64
 976  1545.283
 977  1920.13
 978  2129.133
 979  2513.012
 980  2616.373
 981  2605.737
 982  2460.978
 983  2072.217
 984  1976.219
 985  1787.415
 986  1702
 987  1652.017
 988  1623.164
 989  1629.688
 990  1468.298
 991  1307.292
 992  1384.827
 993  1380.808
 994  1600.508
 995  1781.899
 996  2003.166
 997  2091.491
 998  1899.832
 999  1798.394
1000  1417.072
1001  1318.176
1002  1313.417
1003  1279.242
1004  1301.017
1005  1204.231
1006  1160.884
1007  1179.367
1008  1121.705
1009  1449.501
1010  1638.646
1011  1991.986
1012  2260.73
1013  2325.531
1014  2474.854
1015  2357.284
1016  2264.693
1017  2167.939
1018  1941.703
1019  1823.962
1020  1654.104
1021  1593.207
1022  1581.456
1023  1458.074
