# Input file       =  1206100079.114177_cleaned.dat
# Candidate        =  PSR_0332+5434
# Telescope        =  AR
# Epoch_topo       =  58203.491876321496
# Epoch_bary       =  N/A
# T_sample         =  0.002
# Data Folded      =  7340032
# Data Avg         =  0.062309292785022
# Data StdDev      =  1.00024729230187 
# Profile Bins     =  512
# Profile Avg      =  893.187038508639 
# Profile StdDev   =  119.762645434942 
# Reduced chi-sqr  =  1.256
# Prob(Noise)      <  7.15e-05   (~3.8 sigma)
# P_topo (ms)      =  714.572698461452  +/- 0.000392
# P'_topo (s/s)    =  -0                +/- 2.07e-10
# P''_topo (s/s^2) =  0                 +/- 9.12e-14
# P_bary (ms)      =  N/A
# P'_bary (s/s)    =  N/A
# P''_bary (s/s^2) =  N/A
# P_orb (s)        =  N/A
# asin(i)/c (s)    =  N/A
# eccentricity     =  N/A
# w (rad)          =  N/A
# T_peri           =  N/A
######################################################
   0  950.0757
   1  932.5876
   2  869.3218
   3  819.874
   4  1007.843
   5  973.8865
   6  963.2982
   7  940.2142
   8  936.4366
   9  876.0082
  10  836.2038
  11  885.8763
  12  894.8663
  13  815.8029
  14  877.5442
  15  857.0257
  16  758.8759
  17  856.65
  18  849.8253
  19  835.7264
  20  890.4033
  21  792.3031
  22  745.5425
  23  779.5656
  24  886.9695
  25  810.3152
  26  806.8557
  27  770.5521
  28  846.6586
  29  851.0185
  30  886.5671
  31  910.7619
  32  838.657
  33  776.9297
  34  786.4149
  35  862.9976
  36  920.9061
  37  952.1792
  38  925.7238
  39  870.3209
  40  937.1992
  41  905.1047
  42  878.8344
  43  966.8403
  44  853.6571
  45  923.3312
  46  895.7437
  47  918.0062
  48  840.7145
  49  833.0681
  50  872.3215
  51  917.7569
  52  871.7529
  53  832.8329
  54  902.8784
  55  919.0484
  56  895.5948
  57  932.1056
  58  952.8572
  59  877.8624
  60  904.5694
  61  941.5428
  62  1006.77
  63  996.4449
  64  1052.357
  65  1029.376
  66  1055.115
  67  1029.69
  68  958.6456
  69  980.3809
  70  973.5295
  71  1006.052
  72  1111.427
  73  1077.836
  74  1099.054
  75  1016.777
  76  1003.13
  77  963.0153
  78  950.6747
  79  1041.985
  80  1071.867
  81  1021.126
  82  1018.143
  83  976.5241
  84  906.5817
  85  939.371
  86  942.9302
  87  935.7054
  88  888.1532
  89  852.6574
  90  942.763
  91  866.2787
  92  849.7581
  93  864.9034
  94  906.727
  95  934.1675
  96  906.7504
  97  951.0023
  98  864.1638
  99  769.6466
 100  783.7716
 101  804.9663
 102  867.2291
 103  879.3414
 104  912.0539
 105  869.5822
 106  941.752
 107  842.5621
 108  899.5789
 109  896.1296
 110  941.6755
 111  908.6118
 112  938.843
 113  895.9619
 114  936.1675
 115  978.102
 116  946.4863
 117  883.6147
 118  942.1967
 119  989.9309
 120  894.9854
 121  839.1431
 122  905.2797
 123  902.6619
 124  891.9249
 125  945.9846
 126  929.6627
 127  1045.34
 128  1005.815
 129  897.7181
 130  908.2004
 131  883.0078
 132  881.2529
 133  906.7756
 134  924.7003
 135  960.5287
 136  1012.041
 137  1062.079
 138  965.6891
 139  897.9857
 140  853.8492
 141  823.9183
 142  860.0189
 143  924.9689
 144  907.0272
 145  917.1525
 146  922.6725
 147  887.2927
 148  894.8119
 149  916.0396
 150  933.9146
 151  857.4609
 152  779.644
 153  839.0613
 154  957.525
 155  955.9438
 156  864.9406
 157  838.8311
 158  862.1532
 159  819.7869
 160  762.7877
 161  779.5091
 162  783.2422
 163  866.9907
 164  815.4576
 165  798.5312
 166  823.692
 167  816.978
 168  786.6086
 169  821.9733
 170  856.192
 171  800.0665
 172  767.3856
 173  810.6873
 174  811.4955
 175  730.1694
 176  759.6461
 177  778.5064
 178  710.4342
 179  675.1142
 180  702.11
 181  615.6404
 182  662.3185
 183  713.9549
 184  744.6976
 185  740.3856
 186  704.517
 187  700.0626
 188  684.515
 189  735.079
 190  760.508
 191  736.7812
 192  696.6436
 193  709.7758
 194  773.1334
 195  689.7966
 196  710.0591
 197  715.4958
 198  763.6591
 199  778.074
 200  825.9566
 201  884.3782
 202  812.7125
 203  869.4883
 204  857.8302
 205  863.9394
 206  967.6781
 207  877.9537
 208  803.611
 209  834.9056
 210  900.975
 211  941.1721
 212  897.7003
 213  942.0685
 214  977.5931
 215  966.6802
 216  927.7063
 217  886.2816
 218  925.3716
 219  949.4344
 220  949.5147
 221  921.0312
 222  888.1249
 223  932.4092
 224  945.3322
 225  860.2236
 226  900.7208
 227  878.2296
 228  836.899
 229  931.0919
 230  883.3328
 231  874.0532
 232  872.8534
 233  872.0683
 234  834.6056
 235  795.1504
 236  829.4356
 237  837.7493
 238  858.0904
 239  859.4263
 240  889.0704
 241  889.5962
 242  830.5792
 243  832.6218
 244  886.439
 245  823.9573
 246  849.1156
 247  817.5048
 248  830.2416
 249  816.9664
 250  805.7529
 251  864.7123
 252  821.321
 253  808.3809
 254  770.6138
 255  703.3592
 256  737.8448
 257  846.7151
 258  833.9877
 259  831.0428
 260  805.8061
 261  880.0596
 262  904.126
 263  834.0751
 264  860.2314
 265  839.6501
 266  822.4323
 267  819.1998
 268  917.6069
 269  976.533
 270  967.7599
 271  900.6102
 272  874.1478
 273  946.2534
 274  924.2003
 275  1011.066
 276  992.4024
 277  983.2201
 278  949.9119
 279  897.4734
 280  910.4254
 281  875.1121
 282  949.1306
 283  852.9777
 284  881.9716
 285  896.8806
 286  929.5549
 287  904.7556
 288  942.1318
 289  972.4254
 290  907.5479
 291  930.5582
 292  992.5793
 293  1048.381
 294  1018.727
 295  1023.011
 296  971.2793
 297  903.6558
 298  847.416
 299  894.2419
 300  880.1638
 301  960.5014
 302  939.9565
 303  903.6879
 304  900.5579
 305  890.8583
 306  809.6849
 307  865.6568
 308  915.9771
 309  927.5625
 310  901.921
 311  889.9305
 312  893.6339
 313  793.1033
 314  739.8624
 315  757.3496
 316  753.6351
 317  648.1909
 318  710.7479
 319  800.6703
 320  790.025
 321  840.0848
 322  833.8829
 323  773.3801
 324  674.222
 325  714.3591
 326  782.9148
 327  779.7281
 328  837.0801
 329  807.4492
 330  737.6191
 331  730.4604
 332  838.7219
 333  795.9014
 334  713.1779
 335  716.6558
 336  814.8403
 337  861.0568
 338  854.1027
 339  860.2501
 340  894.1442
 341  972.5427
 342  936.5358
 343  894.7551
 344  959.7854
 345  962.9124
 346  855.5909
 347  815.8485
 348  931.4744
 349  883.1862
 350  931.1368
 351  888.5488
 352  879.1749
 353  891.3257
 354  893.9883
 355  912.4003
 356  942.2318
 357  895.3361
 358  839.3849
 359  903.6011
 360  904.4637
 361  885.8416
 362  847.1123
 363  795.3596
 364  829.9816
 365  869.4973
 366  869.4276
 367  973.3593
 368  1022.577
 369  967.5601
 370  903.3007
 371  978.1592
 372  1025.411
 373  969.0774
 374  990.3798
 375  1020.457
 376  925.6326
 377  1023.646
 378  1021.961
 379  940.5023
 380  921.7304
 381  976.7278
 382  945.644
 383  927.0925
 384  972.2903
 385  1011.879
 386  931.6996
 387  859.7347
 388  925.5127
 389  1017.433
 390  1022.872
 391  1019.099
 392  1029.013
 393  987.7027
 394  889.6006
 395  868.3622
 396  825.3277
 397  880.3673
 398  926.9751
 399  899.2387
 400  959.7419
 401  896.4117
 402  923.7218
 403  944.3713
 404  955.7443
 405  964.4704
 406  987.6997
 407  937.2012
 408  841.8502
 409  928.0316
 410  1005.83
 411  1014.837
 412  888.0442
 413  910.2862
 414  851.7513
 415  807.701
 416  920.5186
 417  995.0986
 418  960.4503
 419  905.8874
 420  953.4646
 421  990.6669
 422  1038.941
 423  1049.598
 424  1065.665
 425  1038.8
 426  1101.541
 427  1224.734
 428  1346.962
 429  1396.664
 430  1453.766
 431  1430.532
 432  1151.673
 433  1014.367
 434  933.3656
 435  918.4328
 436  923.6961
 437  926.5718
 438  943.0134
 439  873.9151
 440  871.2858
 441  803.0915
 442  824.9704
 443  894.5383
 444  949.9914
 445  943.6965
 446  947.038
 447  909.6212
 448  887.02
 449  851.8218
 450  836.4252
 451  823.0909
 452  855.0703
 453  871.893
 454  889.0424
 455  895.7056
 456  864.0103
 457  911.6856
 458  820.7643
 459  729.9532
 460  670.6786
 461  704.7427
 462  700.7366
 463  730.7004
 464  764.6664
 465  797.6802
 466  838.9241
 467  859.9817
 468  828.3416
 469  873.4653
 470  926.7147
 471  876.4254
 472  767.2092
 473  813.836
 474  852.4143
 475  913.6635
 476  941.9684
 477  967.3095
 478  936.9182
 479  912.2115
 480  928.0507
 481  955.4636
 482  899.5784
 483  919.6736
 484  934.1961
 485  966.9159
 486  1026.566
 487  982.9355
 488  1010.425
 489  1024.168
 490  1010.484
 491  953.8043
 492  871.8796
 493  965.5272
 494  951.9222
 495  964.3251
 496  1020.311
 497  980.7166
 498  937.1492
 499  1010.17
 500  1006.574
 501  916.657
 502  919.7482
 503  890.9279
 504  924.9702
 505  957.6677
 506  950.4582
 507  877.555
 508  906.5469
 509  807.6512
 510  825.8495
 511  915.2562
