# Input file       =  1206343968.106489_cleaned.dat
# Candidate        =  PSR_0332+5434
# Telescope        =  AR
# Epoch_topo       =  58206.314665584359
# Epoch_bary       =  N/A
# T_sample         =  0.002
# Data Folded      =  7208960
# Data Avg         =  0.599675953230525
# Data StdDev      =  6.67464474906965 
# Profile Bins     =  512
# Profile Avg      =  8443.4151459251  
# Profile StdDev   =  792.007844639222 
# Reduced chi-sqr  =  1.796
# Prob(Noise)      <  1.45e-25   (~10.4 sigma)
# P_topo (ms)      =  714.571173833853  +/- 3.84e-05
# P'_topo (s/s)    =  -0                +/- 2.06e-11
# P''_topo (s/s^2) =  0                 +/- 9.27e-15
# P_bary (ms)      =  N/A
# P'_bary (s/s)    =  N/A
# P''_bary (s/s^2) =  N/A
# P_orb (s)        =  N/A
# asin(i)/c (s)    =  N/A
# eccentricity     =  N/A
# w (rad)          =  N/A
# T_peri           =  N/A
######################################################
   0  9130.566
   1  8460.409
   2  7894.877
   3  7727.668
   4  7792.292
   5  7326.532
   6  7681.337
   7  8127.11
   8  8620.376
   9  8464.875
  10  8236.983
  11  8397.061
  12  8776.255
  13  9070.606
  14  8896.906
  15  9173.748
  16  9342.371
  17  9175.626
  18  8081.029
  19  7754.907
  20  7855.948
  21  7831.44
  22  7438.622
  23  7267.13
  24  7775.257
  25  8361.211
  26  8023.876
  27  8045.073
  28  8805.008
  29  8988.924
  30  8773.745
  31  8870.015
  32  9710.479
  33  9238.549
  34  8661.078
  35  7900.237
  36  7324.938
  37  7710.146
  38  7333.519
  39  7224.815
  40  7382.527
  41  8087.241
  42  7705.279
  43  7868.156
  44  8731.9
  45  9221.871
  46  9178.769
  47  9039.423
  48  9137.928
  49  9297.965
  50  8495.792
  51  7734.276
  52  7323.95
  53  7411.353
  54  7890.854
  55  7761.944
  56  7368.095
  57  7590.402
  58  7586.179
  59  7392.078
  60  7755.958
  61  8781.339
  62  9212.228
  63  8852.9
  64  8992.214
  65  9185.094
  66  8839.994
  67  8057.929
  68  7527.108
  69  7435.325
  70  7721.039
  71  8081.953
  72  7724.621
  73  7807.439
  74  8241.515
  75  8062.318
  76  7944
  77  7750.127
  78  8925.772
  79  9226.342
  80  9213.832
  81  9441.867
  82  9347.526
  83  8896.755
  84  8103.278
  85  7785.542
  86  7928.091
  87  8383.113
  88  8706.174
  89  9473.974
  90  10507.1
  91  10559.41
  92  9566.559
  93  8963.004
  94  8872.046
  95  9012.818
  96  8939.325
  97  9240.976
  98  9582.407
  99  9595.755
 100  8280.17
 101  7333.812
 102  7156.604
 103  7626.546
 104  7323.539
 105  7047.219
 106  7668.283
 107  7803.142
 108  8007.245
 109  7663.247
 110  8503.467
 111  8798.095
 112  8764.088
 113  8481.854
 114  8707.461
 115  8603.146
 116  8300.305
 117  7818.587
 118  7423.909
 119  7583.845
 120  7398.434
 121  6993.24
 122  6355.644
 123  7201.292
 124  7478.319
 125  6928.438
 126  7384.187
 127  8346.129
 128  9027.907
 129  8689.8
 130  8420.922
 131  8650.629
 132  8174.673
 133  7247.216
 134  7043.341
 135  7115.517
 136  7535.82
 137  7200.57
 138  7350.747
 139  7362.649
 140  7301.621
 141  7166.421
 142  6954.011
 143  7827.928
 144  8636.228
 145  8762.193
 146  8491.868
 147  8767.705
 148  8742.119
 149  8207.09
 150  7261.462
 151  6744.417
 152  7385.212
 153  7772.479
 154  7502.033
 155  6857.453
 156  7429.66
 157  7812.661
 158  7437.573
 159  7857.812
 160  8328.456
 161  8837.935
 162  8791.446
 163  8776.132
 164  8914.653
 165  9187.297
 166  7904.125
 167  7210.899
 168  7456.099
 169  7431.433
 170  7359.609
 171  6891.951
 172  7239.215
 173  7556.976
 174  7941.825
 175  7818.817
 176  8034.292
 177  8882.121
 178  8939.689
 179  8807.989
 180  9450.685
 181  9696.523
 182  9214.941
 183  8010.177
 184  7718.199
 185  8181.914
 186  8052.728
 187  7786.357
 188  7663.356
 189  7960.187
 190  8349.408
 191  8616.237
 192  9118.143
 193  9827.596
 194  9773.855
 195  9660.554
 196  9134.45
 197  9257.525
 198  9355.594
 199  9104.298
 200  8709.009
 201  8595.033
 202  8923.744
 203  8516.881
 204  7889.02
 205  7579.683
 206  7876.021
 207  8576.789
 208  8247.406
 209  8512.608
 210  9197.466
 211  9679.33
 212  9741.833
 213  9818.499
 214  9641.328
 215  9088.287
 216  8446.583
 217  8202.216
 218  8594.793
 219  8482.465
 220  8254.455
 221  8044.338
 222  8002.765
 223  8556.753
 224  8420.066
 225  8154.127
 226  8492.803
 227  9483.435
 228  9704.991
 229  9610.212
 230  9467.161
 231  9354.779
 232  8658.944
 233  7850.607
 234  7828.285
 235  8239.532
 236  8238.368
 237  8041.422
 238  7995.805
 239  8217.509
 240  7886.092
 241  7692.765
 242  8425.255
 243  8992.308
 244  9106.305
 245  9410.288
 246  9450.945
 247  9467.989
 248  9458.603
 249  8421.32
 250  7830.179
 251  8027.277
 252  8097.329
 253  7898.25
 254  7942.941
 255  8116.755
 256  8770.389
 257  8363.457
 258  8277.601
 259  8189.95
 260  9311.073
 261  9494.767
 262  9197.433
 263  9622.185
 264  9930.229
 265  8911.277
 266  7927.947
 267  8047.165
 268  8172.08
 269  8256.867
 270  7469.358
 271  7427.773
 272  8444.721
 273  8454.779
 274  8267.007
 275  8479.234
 276  8995.065
 277  9198.977
 278  9222.567
 279  9242.053
 280  9654.526
 281  9083.29
 282  8498.035
 283  8305.951
 284  8363.373
 285  8072.976
 286  7873.51
 287  7672.262
 288  7943.715
 289  8731.187
 290  8650.905
 291  8651.145
 292  9229.198
 293  9804.415
 294  9250.659
 295  9026.289
 296  9318.491
 297  9227.612
 298  9127.888
 299  8471.857
 300  8196.247
 301  8498.044
 302  8626.304
 303  8166.137
 304  7934.066
 305  8009.448
 306  7870.958
 307  7786.733
 308  8607.623
 309  9557.429
 310  9850.653
 311  9520.357
 312  9742.383
 313  9366.492
 314  8764.43
 315  8183.68
 316  7538.498
 317  7805.385
 318  8179.78
 319  8020.039
 320  7973.977
 321  7982.837
 322  8168.596
 323  8303.476
 324  8204.625
 325  8680.46
 326  9368.169
 327  9882.518
 328  9845.182
 329  9658.646
 330  10073.15
 331  9070.415
 332  8249.956
 333  7835.92
 334  8096.381
 335  8259.073
 336  7808.064
 337  7808.317
 338  8199.37
 339  8361.493
 340  8003.268
 341  8334.502
 342  9215.235
 343  9700.778
 344  9310.974
 345  9392.341
 346  9264.983
 347  9046.481
 348  8353.786
 349  8422.314
 350  8417.874
 351  8138.333
 352  7967.843
 353  7267.33
 354  7675.586
 355  8597.946
 356  8272.254
 357  8312.396
 358  9142.503
 359  9741.665
 360  9780.286
 361  9532.443
 362  9965.477
 363  10187.33
 364  9335.032
 365  8773.023
 366  8378.329
 367  8449.86
 368  8213.089
 369  7920.842
 370  7726.413
 371  8655.123
 372  8760.428
 373  8324.681
 374  8478.572
 375  9319.756
 376  9786.209
 377  9889.818
 378  9766.964
 379  9604.676
 380  8890.709
 381  8501.719
 382  8518.52
 383  8751.67
 384  9212.138
 385  9086.456
 386  8587.057
 387  8706.48
 388  8899.506
 389  8394.997
 390  8470.635
 391  9175.344
 392  10058.94
 393  9802.506
 394  9872.896
 395  9880.78
 396  9733.98
 397  9305.124
 398  8349.053
 399  8328.289
 400  8492.941
 401  8852.395
 402  8589.144
 403  8183.586
 404  8460.97
 405  8538.913
 406  8398.979
 407  8430.54
 408  9162.625
 409  9584.738
 410  9355.43
 411  9528.129
 412  9930.668
 413  9650.286
 414  8750.064
 415  8159.095
 416  8071.1
 417  8701.863
 418  7912.77
 419  7619.733
 420  7907.799
 421  8241.967
 422  7847.504
 423  7682.834
 424  8505.996
 425  9220.677
 426  9321.86
 427  9628.767
 428  9675.3
 429  9497.932
 430  8534.852
 431  7837.275
 432  7436.382
 433  8025.711
 434  7965.955
 435  7068.918
 436  6981.439
 437  7447.347
 438  7703.598
 439  7368.658
 440  7641.066
 441  8414.315
 442  8981.981
 443  8793.146
 444  8456.207
 445  8965.772
 446  8865.642
 447  8316.652
 448  7735.302
 449  7341.259
 450  7400.668
 451  7392.797
 452  6808.288
 453  7058.399
 454  7729.725
 455  7727.407
 456  7692.018
 457  8221.003
 458  8987.754
 459  8764.678
 460  8493.576
 461  8993.461
 462  9120.204
 463  8511.312
 464  7797.033
 465  7414.034
 466  7515.456
 467  7948.173
 468  7863.893
 469  7385.666
 470  8079.835
 471  8170.813
 472  8026.037
 473  8280.042
 474  8913.829
 475  9589.305
 476  9469.614
 477  9385.232
 478  9300.522
 479  8855.263
 480  8262.84
 481  7759.448
 482  7670.226
 483  8049.465
 484  7899.432
 485  7556.02
 486  7871.148
 487  7890.818
 488  7558.983
 489  7492.467
 490  8191.631
 491  9270.031
 492  9624.187
 493  9548.551
 494  9717.358
 495  9708.586
 496  8791.881
 497  7828.85
 498  7549.129
 499  7882.2
 500  7939.474
 501  7768.48
 502  8055.474
 503  8392.469
 504  8301.818
 505  7909.906
 506  8145.054
 507  9196.844
 508  9627.035
 509  9342.773
 510  9036.322
 511  9023.527
