# Input file       =  1206373540.10942_cleaned.dat
# Candidate        =  PSR_0332+5434
# Telescope        =  AR
# Epoch_topo       =  58206.656934136809
# Epoch_bary       =  N/A
# T_sample         =  0.002
# Data Folded      =  7340032
# Data Avg         =  0.233450489539661
# Data StdDev      =  5.72743343750427 
# Profile Bins     =  1024
# Profile Avg      =  1673.43186968644 
# Profile StdDev   =  484.907664841987 
# Reduced chi-sqr  =  0.715
# Prob(Noise)      <  1   (~0.0 sigma)
# P_topo (ms)      =  714.571337429856  +/- 0.000407
# P'_topo (s/s)    =  -0                +/- 2.15e-10
# P''_topo (s/s^2) =  0                 +/- 9.48e-14
# P_bary (ms)      =  N/A
# P'_bary (s/s)    =  N/A
# P''_bary (s/s^2) =  N/A
# P_orb (s)        =  N/A
# asin(i)/c (s)    =  N/A
# eccentricity     =  N/A
# w (rad)          =  N/A
# T_peri           =  N/A
######################################################
   0  1861.267
   1  1926.131
   2  1926.838
   3  1859.777
   4  1785.578
   5  1626.782
   6  1561.764
   7  1640.534
   8  1788.36
   9  1854.825
  10  1831.134
  11  1891.368
  12  1859.544
  13  1887.653
  14  2075.449
  15  1962.871
  16  1742.589
  17  1543.492
  18  1629.287
  19  1787.029
  20  1825.029
  21  1806.024
  22  1681.435
  23  1636.868
  24  1616.225
  25  1607.398
  26  1589.753
  27  1473.173
  28  1507.457
  29  1493.179
  30  1509.772
  31  1531.211
  32  1625.205
  33  1505.642
  34  1316.851
  35  1250.949
  36  1351.938
  37  1431.565
  38  1570.259
  39  1721.229
  40  1925.313
  41  1827.229
  42  1755.893
  43  1550.334
  44  1529.089
  45  1553.8
  46  1579.161
  47  1525.05
  48  1364.024
  49  1472.892
  50  1464.076
  51  1477.192
  52  1333.858
  53  1345.294
  54  1385.736
  55  1492.409
  56  1395.252
  57  1359.201
  58  1238.131
  59  1184.169
  60  1320.854
  61  1437.337
  62  1630.748
  63  1416.618
  64  1355.071
  65  1132.389
  66  1105.455
  67  1167.466
  68  1383.196
  69  1482.226
  70  1359.327
  71  1403.342
  72  1312.239
  73  1397.456
  74  1359.06
  75  1400.676
  76  1477.523
  77  1487.094
  78  1439.605
  79  1445.906
  80  1465.8
  81  1562.081
  82  1549.355
  83  1610.298
  84  1652.519
  85  1665.964
  86  1696.163
  87  1615.21
  88  1521.362
  89  1351.829
  90  1275.775
  91  1247.706
  92  1311.774
  93  1414.003
  94  1550.662
  95  1500.614
  96  1574.824
  97  1543.912
  98  1629.712
  99  1565.905
 100  1632.367
 101  1498.358
 102  1466.167
 103  1641.578
 104  1859.11
 105  1882.374
 106  1726.485
 107  1875.821
 108  1843.893
 109  2065.495
 110  2155.964
 111  2158.285
 112  1957.12
 113  1868.823
 114  1836.5
 115  1897.728
 116  1949.505
 117  2070.425
 118  2225.873
 119  2267.571
 120  2240.425
 121  2139.038
 122  2062.41
 123  2024.769
 124  2063.323
 125  2033.844
 126  1909.158
 127  1844.075
 128  1997.323
 129  1988.485
 130  2014.051
 131  1912.258
 132  1827.812
 133  1844.136
 134  1923.853
 135  2030.763
 136  1828.193
 137  1627.289
 138  1652.175
 139  1699.157
 140  1735.789
 141  1642.072
 142  1558.932
 143  1614.419
 144  1629.752
 145  1647.737
 146  1599.138
 147  1538.927
 148  1522.049
 149  1487.596
 150  1399.702
 151  1445.445
 152  1522.955
 153  1529.038
 154  1442.117
 155  1260.207
 156  1317.826
 157  1340.188
 158  1260.48
 159  1322.566
 160  1468.018
 161  1556.957
 162  1418.387
 163  1366.052
 164  1375.469
 165  1500.114
 166  1500.611
 167  1471.879
 168  1531.658
 169  1661.749
 170  1687.032
 171  1591.707
 172  1638.448
 173  1707.475
 174  1657.708
 175  1648.259
 176  1678.924
 177  1650.525
 178  1642.874
 179  1723.195
 180  1845.834
 181  1637.196
 182  1500.06
 183  1522.064
 184  1528.7
 185  1481.065
 186  1438.836
 187  1424.812
 188  1535.643
 189  1621.47
 190  1592.522
 191  1490.331
 192  1486.618
 193  1686.992
 194  1766.522
 195  1701.625
 196  1571.896
 197  1621.809
 198  1747.769
 199  1621.949
 200  1438.604
 201  1330.2
 202  1357.234
 203  1479.143
 204  1519.847
 205  1631.765
 206  1709.322
 207  1871.733
 208  1810.368
 209  1753.458
 210  1597.217
 211  1533.284
 212  1523.229
 213  1563.886
 214  1439.469
 215  1389.935
 216  1424.781
 217  1541.265
 218  1425.526
 219  1416.112
 220  1451.228
 221  1630.946
 222  1763.605
 223  1675.396
 224  1522.622
 225  1293.423
 226  1284.742
 227  1356.994
 228  1341.294
 229  1292.809
 230  1256.186
 231  1307.965
 232  1374.836
 233  1353.51
 234  1427.111
 235  1331.553
 236  1338.776
 237  1470.111
 238  1545.651
 239  1532.452
 240  1427.13
 241  1493.095
 242  1637.691
 243  1716.937
 244  1567.985
 245  1454.561
 246  1417.925
 247  1512.745
 248  1438.73
 249  1580.01
 250  1715.624
 251  1756.074
 252  1623.435
 253  1658.84
 254  1649.271
 255  1692.222
 256  1724.821
 257  1647.298
 258  1538.202
 259  1550.064
 260  1544.404
 261  1460.498
 262  1383.05
 263  1495.706
 264  1544.475
 265  1592.651
 266  1456.768
 267  1437.741
 268  1390.673
 269  1495.026
 270  1608.393
 271  1541.118
 272  1547.897
 273  1367.614
 274  1317.101
 275  1227.062
 276  1325.556
 277  1346.61
 278  1356.435
 279  1352.52
 280  1539.227
 281  1559.732
 282  1663.423
 283  1716.179
 284  1831.41
 285  1608.567
 286  1681.264
 287  1760.207
 288  1888.805
 289  1941.076
 290  1975.822
 291  2036.137
 292  1829.919
 293  1712.474
 294  1419.295
 295  1225.107
 296  1086.223
 297  1210.839
 298  1277.385
 299  1310.658
 300  1429.81
 301  1429.712
 302  1418.383
 303  1357.826
 304  1381.071
 305  1429.065
 306  1284.986
 307  1272.543
 308  1179.421
 309  1213.247
 310  1063.791
 311  1021.732
 312  1023.055
 313  1103.679
 314  1211.717
 315  1266.735
 316  1267.887
 317  1370.634
 318  1466.393
 319  1442.479
 320  1371.05
 321  1440.457
 322  1477.425
 323  1544.259
 324  1501.909
 325  1425.059
 326  1466.621
 327  1453.213
 328  1482.842
 329  1449.121
 330  1460.142
 331  1575.255
 332  1527.671
 333  1505.534
 334  1472.035
 335  1442.932
 336  1522.076
 337  1507.158
 338  1485.986
 339  1395.23
 340  1392.725
 341  1436.641
 342  1594.421
 343  1682.086
 344  1647.237
 345  1669.697
 346  1799.176
 347  1894.821
 348  1740.628
 349  1616.631
 350  1594.061
 351  1510.415
 352  1640.084
 353  1771.396
 354  1882.347
 355  1868.201
 356  1868.02
 357  1848.065
 358  1812.046
 359  1849.465
 360  1802.885
 361  1754.449
 362  1618.432
 363  1702.642
 364  1705.166
 365  1635.623
 366  1585.031
 367  1656.088
 368  1817.754
 369  1853.774
 370  1678.139
 371  1483.729
 372  1578.129
 373  1742.736
 374  1717.771
 375  1559.666
 376  1664.62
 377  1668.097
 378  1635.889
 379  1652.027
 380  1805.647
 381  1668.546
 382  1577.588
 383  1397.413
 384  1453.629
 385  1556.066
 386  1584.381
 387  1597.51
 388  1533.452
 389  1546.516
 390  1460.245
 391  1501.315
 392  1552.819
 393  1634.308
 394  1689.22
 395  1627.89
 396  1743.386
 397  1818.843
 398  1948.217
 399  1959.696
 400  1843.384
 401  1758.833
 402  1764.174
 403  1846.648
 404  1869.489
 405  1780.177
 406  1678.744
 407  1711.196
 408  1762.095
 409  1733.969
 410  1797.019
 411  1923.888
 412  1955.917
 413  1938.5
 414  2025.094
 415  2095.041
 416  1988.688
 417  2080.799
 418  2079.869
 419  1830.461
 420  1638.423
 421  1671.547
 422  1797.111
 423  1765.482
 424  1875.468
 425  2043.448
 426  2002.723
 427  1931.389
 428  1848.646
 429  1950.374
 430  1994.831
 431  1948.533
 432  1829.542
 433  1810.151
 434  1898.121
 435  2161.018
 436  2144.677
 437  2022.196
 438  1881.497
 439  1868.651
 440  1911.36
 441  2011.199
 442  2060.435
 443  2096.232
 444  1884.852
 445  1836.575
 446  1953.985
 447  2067.346
 448  2093.021
 449  1963.121
 450  1879.712
 451  1928.766
 452  1867.16
 453  1765.976
 454  1684.977
 455  1705.264
 456  1707.635
 457  1659.478
 458  1657.458
 459  1658.1
 460  1495.152
 461  1319.64
 462  1386.447
 463  1454.099
 464  1581.85
 465  1548.488
 466  1646.291
 467  1499.675
 468  1492.362
 469  1475.893
 470  1580.604
 471  1505.766
 472  1556.344
 473  1657.445
 474  1754.327
 475  1779.439
 476  1731.541
 477  1754.02
 478  1958.451
 479  1980.613
 480  1865.071
 481  1595.975
 482  1556.165
 483  1745.576
 484  1873.951
 485  1922.987
 486  1802.749
 487  1788.788
 488  1776.757
 489  1861.918
 490  1835.365
 491  1769.294
 492  1782.202
 493  1882.557
 494  1933.358
 495  1969.525
 496  1802.473
 497  1665.997
 498  1649.768
 499  1662.173
 500  1837.314
 501  1939.589
 502  1987.62
 503  1892.958
 504  1674.317
 505  1675.456
 506  1608.206
 507  1605.806
 508  1588.93
 509  1676.333
 510  1715.813
 511  1665.965
 512  1509.855
 513  1537.948
 514  1557.959
 515  1717.381
 516  1784.843
 517  1728.917
 518  1622.769
 519  1822.202
 520  1931.922
 521  1891.168
 522  1786.626
 523  1738.659
 524  1752.165
 525  1755.602
 526  1755.372
 527  1782.238
 528  1701.426
 529  1702.252
 530  1665.478
 531  1805.021
 532  1851.924
 533  1833.961
 534  1780.583
 535  1850.849
 536  2034.602
 537  2115.835
 538  1975.589
 539  1903.375
 540  1838.071
 541  1818.133
 542  1818.752
 543  1877.285
 544  1872.126
 545  1758.572
 546  1595.42
 547  1719.897
 548  1922.003
 549  2038.913
 550  2050.944
 551  2049.273
 552  1813.169
 553  1718.267
 554  1615.124
 555  1708.853
 556  1750.603
 557  1879.247
 558  2010.187
 559  2066.146
 560  2091.199
 561  1934.552
 562  1949.875
 563  1976.061
 564  1942.851
 565  2032.865
 566  2058.196
 567  2199.083
 568  2096.853
 569  2059.955
 570  2050.371
 571  2005.577
 572  1986.242
 573  1978.113
 574  1916.01
 575  2025.575
 576  2061.939
 577  2135.937
 578  1998.778
 579  1820.21
 580  1767.844
 581  1789.117
 582  1764.46
 583  1707.54
 584  1794.255
 585  1852.609
 586  1941.462
 587  1891.39
 588  1844.83
 589  1775.438
 590  1720.841
 591  1649.822
 592  1671.332
 593  1628.905
 594  1623.379
 595  1534.135
 596  1573.493
 597  1674.219
 598  1834.382
 599  1999.114
 600  2159.127
 601  2358.08
 602  2570.514
 603  2597.199
 604  2764.059
 605  2806.355
 606  2784.762
 607  2653.518
 608  2482.569
 609  2403.648
 610  2098.894
 611  1844.621
 612  1614.053
 613  1651.264
 614  1706.366
 615  1661.214
 616  1592.458
 617  1491.874
 618  1589.366
 619  1602.433
 620  1700.977
 621  1788.539
 622  1761.014
 623  1731.693
 624  1678.701
 625  1643.428
 626  1565.637
 627  1613.161
 628  1821.59
 629  1898.61
 630  2023.374
 631  1886.539
 632  1877.261
 633  1975.487
 634  1911.03
 635  1842.731
 636  1698.72
 637  1798.393
 638  1705.169
 639  1756.722
 640  1679.591
 641  1650.414
 642  1544.069
 643  1442.138
 644  1454.064
 645  1412.096
 646  1620.683
 647  1561.203
 648  1603.187
 649  1453.103
 650  1516.573
 651  1476.766
 652  1524.569
 653  1430.119
 654  1550.595
 655  1541.711
 656  1545.285
 657  1556.165
 658  1634.266
 659  1646.025
 660  1655.034
 661  1626.375
 662  1557.83
 663  1622.316
 664  1766.296
 665  1813.562
 666  1691.226
 667  1596.118
 668  1597.607
 669  1626.881
 670  1473.28
 671  1333.875
 672  1270.074
 673  1501.172
 674  1529.36
 675  1598.762
 676  1543.383
 677  1539.762
 678  1554.886
 679  1432.518
 680  1383.976
 681  1365.713
 682  1513.051
 683  1688.525
 684  1748.858
 685  1617.834
 686  1568.003
 687  1572.195
 688  1567.995
 689  1488.333
 690  1602.494
 691  1560.435
 692  1446.573
 693  1273.843
 694  1371.797
 695  1460.82
 696  1581.055
 697  1622.252
 698  1641.886
 699  1657.449
 700  1590.487
 701  1588.103
 702  1675.789
 703  1663.374
 704  1663.784
 705  1567.329
 706  1534.943
 707  1528.775
 708  1580.199
 709  1558.745
 710  1500.236
 711  1459.679
 712  1477.698
 713  1451.366
 714  1500.225
 715  1538.247
 716  1624.255
 717  1633.759
 718  1540.017
 719  1422.669
 720  1492.302
 721  1448.497
 722  1486.61
 723  1507.197
 724  1514.294
 725  1660.351
 726  1747.764
 727  1850.672
 728  1745.097
 729  1729.156
 730  1826.9
 731  1729.948
 732  1625.048
 733  1453.533
 734  1516.783
 735  1555.31
 736  1734.92
 737  1754.782
 738  1844.338
 739  1817.325
 740  1870.138
 741  1858.621
 742  1678.739
 743  1622.177
 744  1569.37
 745  1564.574
 746  1554.23
 747  1459.541
 748  1560.856
 749  1698.474
 750  1773.042
 751  1913.811
 752  1815.181
 753  1760.126
 754  1569.131
 755  1638.292
 756  1625.883
 757  1594.423
 758  1572.375
 759  1666.836
 760  1796.978
 761  1802.725
 762  1915.202
 763  2007.958
 764  2096.741
 765  1973.884
 766  1821.131
 767  1812.799
 768  1890.451
 769  2072.985
 770  2025.693
 771  2046.819
 772  2073.631
 773  2059.941
 774  2076.94
 775  1962.808
 776  1817.867
 777  1590.141
 778  1570.48
 779  1792.421
 780  2012.067
 781  2007.468
 782  2019.406
 783  2008.188
 784  2057.103
 785  2106.558
 786  2138.797
 787  2061.388
 788  2032.893
 789  1985.939
 790  1826.754
 791  1635.458
 792  1652.603
 793  1793.028
 794  1903.818
 795  1708.71
 796  1526.592
 797  1576.95
 798  1655.155
 799  1602.899
 800  1461.196
 801  1468.358
 802  1711.528
 803  1740.297
 804  1817.838
 805  1714.954
 806  1587.295
 807  1472.573
 808  1545.164
 809  1631.473
 810  1696.987
 811  1737.876
 812  1769.625
 813  1750.301
 814  1538.649
 815  1568.774
 816  1567.604
 817  1804.136
 818  1852.558
 819  1940.008
 820  1848.93
 821  1727.943
 822  1592.956
 823  1622.797
 824  1654.694
 825  1710.131
 826  1728.975
 827  1775.657
 828  1681.54
 829  1610.038
 830  1527.714
 831  1533.404
 832  1523.143
 833  1524.85
 834  1614.79
 835  1641.514
 836  1543.758
 837  1442.009
 838  1465.417
 839  1542.336
 840  1531.084
 841  1459.079
 842  1550.537
 843  1594.359
 844  1746.429
 845  1690.162
 846  1686.16
 847  1720.157
 848  1800.383
 849  1708.27
 850  1578.593
 851  1419.796
 852  1415.646
 853  1465.841
 854  1522.11
 855  1556.182
 856  1564.24
 857  1550.689
 858  1709.462
 859  1728.005
 860  1827.483
 861  1792.206
 862  1812.422
 863  1708.839
 864  1601.638
 865  1698.139
 866  1627.195
 867  1619.743
 868  1585.806
 869  1578.889
 870  1543.822
 871  1565.682
 872  1718.697
 873  1711.537
 874  1813.208
 875  1825.563
 876  1772.32
 877  1457.536
 878  1452.09
 879  1435.662
 880  1444.849
 881  1400.211
 882  1462.18
 883  1628.122
 884  1767.579
 885  1823.152
 886  1741.66
 887  1650.11
 888  1716.647
 889  1741.751
 890  1682.804
 891  1611.06
 892  1697.637
 893  1872.106
 894  1953.016
 895  2012.187
 896  1923.464
 897  1840.115
 898  1793.923
 899  1954.767
 900  2116.359
 901  2181.967
 902  1975.839
 903  1775.297
 904  1836.357
 905  1789.805
 906  1867.306
 907  1730.303
 908  1775.521
 909  1722.928
 910  1770.03
 911  1757.017
 912  1902.034
 913  1905.17
 914  2027.251
 915  1921.793
 916  1832.426
 917  1697.892
 918  1645.992
 919  1598.548
 920  1450.917
 921  1488.859
 922  1534.694
 923  1473.171
 924  1417.806
 925  1505.352
 926  1727.842
 927  1864.807
 928  1705.055
 929  1557.913
 930  1539.57
 931  1576.801
 932  1539.609
 933  1657.645
 934  1630.948
 935  1636.443
 936  1562.862
 937  1638.252
 938  1674.772
 939  1671.576
 940  1743.703
 941  1802.73
 942  1866.683
 943  1931.098
 944  1872.855
 945  1841.964
 946  1816.166
 947  1749.051
 948  1688.215
 949  1676.449
 950  1617.874
 951  1718.945
 952  1716.048
 953  1700.127
 954  1750.19
 955  1791.317
 956  1863.004
 957  1849.28
 958  1791.344
 959  1652.666
 960  1560.747
 961  1572.314
 962  1588.386
 963  1531.956
 964  1473.231
 965  1484.738
 966  1530.081
 967  1627.382
 968  1642.455
 969  1599.325
 970  1541.82
 971  1701.768
 972  1895.762
 973  1853.786
 974  1589.205
 975  1311.477
 976  1339.33
 977  1472.318
 978  1587.52
 979  1839.145
 980  2012.079
 981  1991.26
 982  1894.499
 983  1974.257
 984  1929.108
 985  1879.744
 986  1697.02
 987  1625.31
 988  1495.094
 989  1360.861
 990  1297.887
 991  1315.499
 992  1453.427
 993  1494.789
 994  1371.931
 995  1362.771
 996  1461.23
 997  1626.661
 998  1574.695
 999  1635.298
1000  1610.573
1001  1664.543
1002  1583.053
1003  1449.661
1004  1335.16
1005  1177.935
1006  1269.059
1007  1484.836
1008  1787.831
1009  1837.727
1010  1776.768
1011  1790.042
1012  1789.413
1013  1726.195
1014  1842.587
1015  1809.909
1016  1797.627
1017  1681.472
1018  1628.15
1019  1733.856
1020  1754.927
1021  1777.078
1022  1762.48
1023  1787.716
