# Input file       =  1206186294.114467_cleaned.dat
# Candidate        =  PSR_0332+5434
# Telescope        =  AR
# Epoch_topo       =  58204.489735121148
# Epoch_bary       =  N/A
# T_sample         =  0.002
# Data Folded      =  7340032
# Data Avg         =  0.120349830516456
# Data StdDev      =  5.76104297903581 
# Profile Bins     =  512
# Profile Avg      =  1722.98026405609 
# Profile StdDev   =  689.787168577007 
# Reduced chi-sqr  =  1.955
# Prob(Noise)      <  6.69e-34   (~12.1 sigma)
# P_topo (ms)      =  714.572178032741  +/- 0.000155
# P'_topo (s/s)    =  -0                +/- 8.18e-11
# P''_topo (s/s^2) =  0                 +/- 3.61e-14
# P_bary (ms)      =  N/A
# P'_bary (s/s)    =  N/A
# P''_bary (s/s^2) =  N/A
# P_orb (s)        =  N/A
# asin(i)/c (s)    =  N/A
# eccentricity     =  N/A
# w (rad)          =  N/A
# T_peri           =  N/A
######################################################
   0  2537.587
   1  2412.917
   2  2299.305
   3  2064.002
   4  2495.711
   5  2636.171
   6  2146.832
   7  2621.215
   8  2681.777
   9  2580.705
  10  2360.828
  11  2380.013
  12  2639.873
  13  2563.786
  14  2827.659
  15  2904.63
  16  2963.8
  17  2417.949
  18  2053.442
  19  1855.048
  20  2046.192
  21  1687.207
  22  1772.042
  23  1452.153
  24  1609.855
  25  1447.189
  26  1134.59
  27  1427.88
  28  1331.543
  29  922.5471
  30  929.8878
  31  992.988
  32  1259.286
  33  1530.207
  34  1227.409
  35  1075.261
  36  1022.84
  37  1176.506
  38  1320.276
  39  1085.995
  40  1006.898
  41  1474.219
  42  1290.8
  43  1336.146
  44  1173.752
  45  845.3021
  46  626.8713
  47  808.2718
  48  1105.704
  49  1665.944
  50  1613.872
  51  1821.05
  52  2108.294
  53  2114.556
  54  1863.219
  55  1808.568
  56  1688.954
  57  2369.161
  58  2425.751
  59  2000.52
  60  1627.786
  61  2011.307
  62  1707.64
  63  1566.177
  64  1954.384
  65  2068.382
  66  1973.908
  67  1947.966
  68  2457.214
  69  2381.65
  70  2064.878
  71  2279.827
  72  2384.771
  73  2776.226
  74  3146.014
  75  3295.555
  76  3348.979
  77  3065.45
  78  3226.574
  79  3381.735
  80  3167.668
  81  2946.081
  82  3164.854
  83  3506.418
  84  3160.76
  85  3042.751
  86  3001.276
  87  3053.585
  88  3043.473
  89  2897.947
  90  2389.287
  91  2605.2
  92  2949.617
  93  2806.627
  94  2225.728
  95  2079.879
  96  1762.144
  97  1448.535
  98  1698.485
  99  1916.643
 100  1813.611
 101  1825.578
 102  1895.344
 103  1536.76
 104  1404.244
 105  1479.544
 106  1529.906
 107  1559.724
 108  1718.953
 109  1940.07
 110  1990.8
 111  1658.389
 112  1640.895
 113  1660.411
 114  1773.062
 115  1961.861
 116  1900.023
 117  1451.316
 118  1146.673
 119  1086.04
 120  1190.175
 121  1205.927
 122  1171.643
 123  1477.327
 124  1670.349
 125  1101.239
 126  773.3807
 127  1189.294
 128  1333.836
 129  1485.083
 130  1288.377
 131  1471.793
 132  1619.332
 133  1681.856
 134  1879.144
 135  1783.999
 136  1550.792
 137  1774.997
 138  1792.191
 139  1956.62
 140  2430.792
 141  2558.352
 142  2641.366
 143  2558.452
 144  2818.382
 145  2602.944
 146  2488.587
 147  2690.354
 148  2518.435
 149  2554.044
 150  2731.109
 151  2839.973
 152  2927.24
 153  2730.114
 154  2983.546
 155  3072.647
 156  2697.457
 157  2571.749
 158  3248.453
 159  3249.747
 160  3065.313
 161  3473.286
 162  3934.681
 163  3753.3
 164  3823.653
 165  3904.562
 166  3605.904
 167  2746.026
 168  2738.232
 169  2305.052
 170  1790.306
 171  1809.522
 172  1966.664
 173  1846.222
 174  2003.636
 175  2039.468
 176  2168.523
 177  1788.248
 178  2089.465
 179  2032.283
 180  2074.857
 181  1808.65
 182  1572.092
 183  1545.909
 184  1601.198
 185  1327.278
 186  1383.799
 187  1325.221
 188  1501.296
 189  1155.677
 190  1080.458
 191  1050.175
 192  1187.697
 193  1315.685
 194  1306.516
 195  981.9544
 196  854.9417
 197  783.8021
 198  835.6562
 199  1032.089
 200  1042.159
 201  1109.853
 202  1321.7
 203  1120.176
 204  1526.788
 205  1605.493
 206  1442.923
 207  1628.577
 208  1548.715
 209  1588.847
 210  1825.948
 211  1707.157
 212  1913.439
 213  1912.149
 214  1784.355
 215  2219.837
 216  2301.637
 217  2365.259
 218  2323.063
 219  2343.678
 220  2334.295
 221  2410.459
 222  2275.816
 223  2222.037
 224  2148.596
 225  2047.679
 226  1990.354
 227  2121.13
 228  2174.679
 229  2088.045
 230  2199.802
 231  2107.257
 232  2127.686
 233  2162.829
 234  1895.02
 235  2010.387
 236  1642.202
 237  2184.673
 238  2003.36
 239  1955.492
 240  2071.175
 241  1864.314
 242  1806.282
 243  1482.483
 244  1378.998
 245  1720.535
 246  1360.463
 247  1449.138
 248  1377.312
 249  1471.282
 250  1246.06
 251  805.235
 252  1014.402
 253  1074.362
 254  978.2047
 255  880.4786
 256  880.3723
 257  949.1043
 258  1091.824
 259  1561.084
 260  1179.107
 261  1090.245
 262  1246.579
 263  916.9839
 264  783.1028
 265  823.2303
 266  733.2488
 267  870.318
 268  647.1504
 269  838.3288
 270  775.3063
 271  940.062
 272  824.2974
 273  339.8941
 274  596.7667
 275  1231.807
 276  1248.697
 277  1114.425
 278  981.8603
 279  827.9997
 280  850.4701
 281  1103.579
 282  1051.66
 283  1265.668
 284  1255.317
 285  1388.487
 286  1620.924
 287  1737.811
 288  1812.567
 289  1633.763
 290  1719.236
 291  1929.15
 292  2117.326
 293  1909.544
 294  2260.176
 295  2429.223
 296  2219.652
 297  2047.974
 298  1793.61
 299  1828.61
 300  1979.568
 301  2166.628
 302  2054.06
 303  2146.522
 304  2378.911
 305  2209.943
 306  1974.23
 307  1865.616
 308  1928.858
 309  1905.127
 310  1654.665
 311  1886.933
 312  1645.359
 313  1485.474
 314  1753.004
 315  1506.189
 316  1383.347
 317  1192.505
 318  1293.193
 319  1305.22
 320  1302.434
 321  1403.387
 322  965.1733
 323  892.5953
 324  1069.627
 325  991.3499
 326  858.7795
 327  991.0748
 328  1254.801
 329  1403.063
 330  1393.339
 331  1164.761
 332  917.2635
 333  863.1029
 334  1007.896
 335  796.4407
 336  450.4882
 337  577.6769
 338  758.019
 339  690.6817
 340  672.3278
 341  533.9786
 342  472.689
 343  710.6695
 344  930.6743
 345  864.5708
 346  892.9318
 347  632.71
 348  622.0515
 349  633.183
 350  442.1481
 351  598.8111
 352  649.9305
 353  870.3462
 354  863.0126
 355  936.5102
 356  980.2607
 357  652.6529
 358  917.9005
 359  1418.431
 360  1624.882
 361  1369.952
 362  1947.992
 363  1726.353
 364  1860.209
 365  1886.558
 366  2013.645
 367  2105.611
 368  2139.335
 369  2403.11
 370  2316.237
 371  2328.702
 372  2423.908
 373  2430.577
 374  2483.764
 375  2375.025
 376  2059.053
 377  2172.205
 378  2369.45
 379  2213.378
 380  1911.854
 381  1940.414
 382  1878.072
 383  2100.624
 384  1988.969
 385  2228.751
 386  1994.867
 387  1743.744
 388  1749.596
 389  1650.993
 390  1633.119
 391  1632.572
 392  1490.882
 393  1721.557
 394  1796.024
 395  1915.351
 396  1641.301
 397  1139.683
 398  930.421
 399  1002.642
 400  1137.659
 401  800.9969
 402  627.2552
 403  667.8058
 404  733.543
 405  446.3708
 406  128.9279
 407  416.5223
 408  259.2769
 409  -13.61946
 410  72.36134
 411  291.6294
 412  447.6459
 413  998.8071
 414  739.9365
 415  625.1599
 416  723.392
 417  764.3615
 418  733.0942
 419  1078.815
 420  1419.709
 421  1573.811
 422  1375.19
 423  1213.859
 424  1483.31
 425  1518.787
 426  1048.18
 427  1119.167
 428  1169.146
 429  1245.873
 430  1665.989
 431  1974.009
 432  1913.33
 433  1701.917
 434  1924.799
 435  1770.497
 436  2045.454
 437  2268.448
 438  2257.562
 439  2215.24
 440  2184.063
 441  2559.006
 442  2557.036
 443  2425.513
 444  2403.758
 445  2493.037
 446  2818.653
 447  2823.319
 448  2586.847
 449  2374.375
 450  2521.794
 451  2889.817
 452  2815.442
 453  2714.223
 454  2750.237
 455  2863.228
 456  2350.103
 457  1996.95
 458  2083.722
 459  2059.894
 460  1971.264
 461  1671.5
 462  1547.329
 463  1579.108
 464  1198.316
 465  1438.894
 466  1580.247
 467  1692.023
 468  1058.697
 469  834.4349
 470  1166.255
 471  1465.574
 472  1519.865
 473  1359.385
 474  1031.755
 475  1029.117
 476  1347.953
 477  1596.515
 478  1381.418
 479  1472.141
 480  1400.311
 481  1111.641
 482  1183.826
 483  1280.942
 484  1278.128
 485  1318.855
 486  1429.701
 487  1150.135
 488  1250.996
 489  1365.332
 490  1123.11
 491  1452.941
 492  1515.591
 493  1474.719
 494  1356.628
 495  1437.47
 496  1563.637
 497  1445.35
 498  1459.145
 499  1667.85
 500  1757.739
 501  1846.54
 502  2052.744
 503  1961.089
 504  1922.38
 505  2094.04
 506  2148.192
 507  2034.13
 508  1852.704
 509  2378.848
 510  2636.122
 511  2662.803
