# Input file       =  1206028808.107821_cleaned.dat
# Candidate        =  PSR_0332+5434
# Telescope        =  AR
# Epoch_topo       =  58202.666980414593
# Epoch_bary       =  N/A
# T_sample         =  0.002
# Data Folded      =  7340032
# Data Avg         =  0.210971223322433
# Data StdDev      =  5.36545791182364 
# Profile Bins     =  1024
# Profile Avg      =  1512.17842148752 
# Profile StdDev   =  454.261353749417 
# Reduced chi-sqr  =  0.948
# Prob(Noise)      <  0.879   (~0.0 sigma)
# P_topo (ms)      =  714.573454280968  +/- 0.000682
# P'_topo (s/s)    =  -0                +/- 3.6e-10
# P''_topo (s/s^2) =  0                 +/- 1.59e-13
# P_bary (ms)      =  N/A
# P'_bary (s/s)    =  N/A
# P''_bary (s/s^2) =  N/A
# P_orb (s)        =  N/A
# asin(i)/c (s)    =  N/A
# eccentricity     =  N/A
# w (rad)          =  N/A
# T_peri           =  N/A
######################################################
   0  1425.724
   1  1594.167
   2  1540.582
   3  1422.465
   4  1347.837
   5  1321.956
   6  1389.854
   7  1338.371
   8  1428.722
   9  1553.683
  10  1536.36
  11  1534.102
  12  1397.518
  13  1445.141
  14  1465.618
  15  1508.797
  16  1431.512
  17  1377.864
  18  1342.178
  19  1432.47
  20  1391.728
  21  1563.954
  22  1566.341
  23  1681.298
  24  1674.614
  25  1736.927
  26  1599.523
  27  1533.438
  28  1504.384
  29  1577.605
  30  1435.625
  31  1401.94
  32  1492.83
  33  1552.2
  34  1633.49
  35  1705.012
  36  1765.13
  37  1625.889
  38  1647.133
  39  1633.809
  40  1726.448
  41  1747.051
  42  1782.055
  43  1629.912
  44  1471.917
  45  1271.491
  46  1243.187
  47  1414.551
  48  1564.159
  49  1668.051
  50  1617.509
  51  1513.936
  52  1518.596
  53  1520.291
  54  1489.87
  55  1491.253
  56  1413.381
  57  1478.4
  58  1523.835
  59  1551.807
  60  1523.619
  61  1387.045
  62  1424.757
  63  1373.417
  64  1461.983
  65  1438.445
  66  1507.644
  67  1610.838
  68  1597.853
  69  1527.312
  70  1466.76
  71  1488.92
  72  1327.581
  73  1344.745
  74  1340.755
  75  1517.017
  76  1594.978
  77  1568.7
  78  1515.251
  79  1476.867
  80  1469.697
  81  1420.252
  82  1492.554
  83  1531.025
  84  1548.025
  85  1573.117
  86  1544.052
  87  1528.289
  88  1442.716
  89  1390.124
  90  1202.153
  91  1154.853
  92  1171.671
  93  1237.484
  94  1392.413
  95  1393.277
  96  1435.477
  97  1347.871
  98  1265.408
  99  1210.606
 100  1221.536
 101  1353.171
 102  1350.954
 103  1442.268
 104  1495.148
 105  1488.492
 106  1538.515
 107  1536.841
 108  1537.851
 109  1550.636
 110  1651.321
 111  1669.035
 112  1586.896
 113  1416.664
 114  1276.618
 115  1286.724
 116  1496.24
 117  1679.081
 118  1771.347
 119  1718.204
 120  1673.749
 121  1583.9
 122  1527.168
 123  1590.832
 124  1758.434
 125  1771.318
 126  1719.283
 127  1584.121
 128  1652.036
 129  1566.35
 130  1654.108
 131  1595.414
 132  1495.67
 133  1336.361
 134  1316.828
 135  1355.963
 136  1562.093
 137  1702.369
 138  1649.181
 139  1341.118
 140  1190.422
 141  1196.908
 142  1348.612
 143  1359.971
 144  1383.671
 145  1196.431
 146  1285.669
 147  1407.41
 148  1635.838
 149  1594.119
 150  1469.812
 151  1392.581
 152  1369.316
 153  1383.798
 154  1404.683
 155  1392.214
 156  1390.05
 157  1421.841
 158  1401.013
 159  1403.234
 160  1311.032
 161  1291.1
 162  1359.075
 163  1333.713
 164  1283.595
 165  1369.876
 166  1455.263
 167  1484.447
 168  1430.397
 169  1350.784
 170  1253.77
 171  1211.385
 172  1347.93
 173  1405.039
 174  1510.875
 175  1456.477
 176  1339.061
 177  1332.906
 178  1417.665
 179  1404.096
 180  1285.527
 181  1104.465
 182  866.8411
 183  787.9952
 184  924.7463
 185  1099.909
 186  1292.569
 187  1278.331
 188  1251.539
 189  1246.797
 190  1241.556
 191  1266.624
 192  1215.528
 193  1155.319
 194  1226.317
 195  1251.31
 196  1167.449
 197  1084.96
 198  1114.116
 199  1128.843
 200  987.2189
 201  1109.168
 202  1202.545
 203  1297.051
 204  1210.084
 205  1191.17
 206  1211.493
 207  1248.157
 208  1398.741
 209  1364.951
 210  1262.306
 211  1290.108
 212  1270.09
 213  1461.066
 214  1423.535
 215  1494.32
 216  1542.286
 217  1504.583
 218  1428.908
 219  1454.204
 220  1457.556
 221  1409.493
 222  1374.426
 223  1380.677
 224  1318.868
 225  1234.215
 226  1162.806
 227  1247.192
 228  1364.944
 229  1302.454
 230  1416.16
 231  1414.227
 232  1501.076
 233  1390.489
 234  1428.19
 235  1365.133
 236  1365.378
 237  1349.872
 238  1232.505
 239  1275.022
 240  1258.052
 241  1256.603
 242  1198.323
 243  1310.581
 244  1329.281
 245  1307.767
 246  1291.219
 247  1352.843
 248  1379.589
 249  1453.676
 250  1432.94
 251  1491.086
 252  1597.15
 253  1615.302
 254  1469.718
 255  1408.876
 256  1485.693
 257  1470.33
 258  1478.098
 259  1244.855
 260  1279.691
 261  1311.246
 262  1368.053
 263  1425.81
 264  1360.071
 265  1288.184
 266  1479.082
 267  1613.137
 268  1687.332
 269  1438.865
 270  1275.579
 271  1199.395
 272  1128.262
 273  1297.408
 274  1418.656
 275  1540.541
 276  1427.164
 277  1319.091
 278  1276.469
 279  1352.056
 280  1504.516
 281  1516.215
 282  1341.085
 283  1285.811
 284  1228.714
 285  1298.309
 286  1245.915
 287  1288.525
 288  1294.272
 289  1197.326
 290  1217.228
 291  1193.773
 292  1129.4
 293  954.1378
 294  926.6051
 295  934.3116
 296  1025.477
 297  1097.131
 298  1162.636
 299  1216.109
 300  1276.08
 301  1260.865
 302  1244.188
 303  1183.87
 304  1160.662
 305  1183.701
 306  1059.258
 307  934.7392
 308  956.4412
 309  867.0356
 310  888.22
 311  793.5767
 312  849.4644
 313  919.3177
 314  938.2994
 315  878.6464
 316  932.535
 317  1093.735
 318  1256.046
 319  1182.516
 320  1077.993
 321  1036.384
 322  1074.755
 323  1165.416
 324  1232.949
 325  1241.881
 326  1143.569
 327  1092.549
 328  1123.972
 329  1299.156
 330  1207.484
 331  1152.877
 332  1088.136
 333  1090.791
 334  987.5298
 335  891.8218
 336  1012.823
 337  1032.95
 338  1074.559
 339  1076.181
 340  1216.029
 341  1187.435
 342  1176.874
 343  1086.34
 344  1103.888
 345  1087.934
 346  1256.035
 347  1269.26
 348  1149.596
 349  1150.526
 350  1158.801
 351  1160.731
 352  1085.754
 353  976.9716
 354  1006.944
 355  1043.417
 356  1227.802
 357  1320.652
 358  1274.92
 359  1105.849
 360  1073.285
 361  1176.788
 362  1264.091
 363  1155.854
 364  1171.406
 365  1146.956
 366  1161.889
 367  1017.973
 368  929.6846
 369  957.6172
 370  1032.536
 371  1165.454
 372  1224.75
 373  1220.246
 374  1236.035
 375  1193.023
 376  1253.989
 377  1116.434
 378  1164.702
 379  1193.359
 380  1298.622
 381  1146.562
 382  1025.68
 383  919.636
 384  1070.72
 385  1200.74
 386  1375.182
 387  1609.195
 388  1688.472
 389  1624.952
 390  1488.863
 391  1525.217
 392  1564.418
 393  1526.316
 394  1387.807
 395  1369.662
 396  1464.027
 397  1513.474
 398  1677.605
 399  1693.359
 400  1700.634
 401  1546.876
 402  1585.791
 403  1583.655
 404  1679.212
 405  1515.182
 406  1638.102
 407  1652.145
 408  1641.484
 409  1712.043
 410  1815.203
 411  1941.89
 412  1908.488
 413  1832.882
 414  1798.067
 415  1736.994
 416  1698.203
 417  1678.665
 418  1720.364
 419  1728.294
 420  1801.689
 421  1748.606
 422  1762.281
 423  1838.833
 424  1990.974
 425  1874.826
 426  1683.676
 427  1602.875
 428  1639.307
 429  1785.552
 430  1783.895
 431  1779.84
 432  1754.938
 433  1676.193
 434  1541.778
 435  1596.249
 436  1772.109
 437  1852.614
 438  1639.884
 439  1598.799
 440  1533.273
 441  1577.265
 442  1564.506
 443  1402.892
 444  1162.223
 445  1144.603
 446  1191.827
 447  1353.732
 448  1355.078
 449  1272.434
 450  1230.923
 451  1219.683
 452  1329.459
 453  1500.255
 454  1585.081
 455  1522.775
 456  1442.941
 457  1401.839
 458  1420.298
 459  1277.789
 460  1235.883
 461  1304.427
 462  1424.348
 463  1439.76
 464  1424.315
 465  1481.961
 466  1582.218
 467  1623.911
 468  1670.056
 469  1690.747
 470  1681.015
 471  1540.483
 472  1613.759
 473  1603.712
 474  1577.872
 475  1551.822
 476  1559.888
 477  1606.707
 478  1665.407
 479  1788.585
 480  1854.603
 481  1782.095
 482  1697.815
 483  1628.809
 484  1638.375
 485  1593.017
 486  1592.011
 487  1633.808
 488  1698.772
 489  1853.131
 490  1806.677
 491  1812.428
 492  1668.84
 493  1685.542
 494  1615.742
 495  1817.942
 496  1801.976
 497  1848.7
 498  1615.217
 499  1676.235
 500  1712.378
 501  1756.626
 502  1553.105
 503  1431.508
 504  1491.167
 505  1514.481
 506  1614.152
 507  1681.08
 508  1734.048
 509  1659.143
 510  1600.396
 511  1698.267
 512  1821.371
 513  1815.26
 514  1819.712
 515  1722.002
 516  1654.233
 517  1512.369
 518  1422.662
 519  1559.558
 520  1721.796
 521  1774.489
 522  1779.19
 523  1696.369
 524  1725.293
 525  1593.105
 526  1580.274
 527  1564.204
 528  1614.213
 529  1686.661
 530  1686.931
 531  1683.546
 532  1712.447
 533  1841.353
 534  1937.208
 535  1964.013
 536  1761.802
 537  1778.492
 538  1847.906
 539  2011.014
 540  1836.863
 541  1778.583
 542  1929.4
 543  1961.435
 544  2058.798
 545  1971.417
 546  1879.707
 547  1898.871
 548  1905.848
 549  1844.782
 550  1781.698
 551  1818.181
 552  1875.099
 553  1929.049
 554  1949.93
 555  2002.661
 556  1847.838
 557  1903.326
 558  1928.837
 559  1836.396
 560  1692.836
 561  1745.805
 562  1775.582
 563  1759.427
 564  1721.932
 565  1735.35
 566  1744.867
 567  1698.012
 568  1631.058
 569  1568.317
 570  1516.259
 571  1534.859
 572  1765.737
 573  1791.38
 574  1843.443
 575  1685.662
 576  1618.154
 577  1595.075
 578  1542.513
 579  1494.565
 580  1424.992
 581  1567.973
 582  1701.233
 583  1794.658
 584  1792.521
 585  1846.413
 586  1929.706
 587  1896.382
 588  1854.153
 589  1875.423
 590  1858.439
 591  2011.727
 592  2130.288
 593  2062.462
 594  1887.737
 595  1765.215
 596  1827.332
 597  1941.747
 598  1970.231
 599  1959.718
 600  2028.119
 601  2248.516
 602  2387.352
 603  2553.447
 604  2517.625
 605  2725.689
 606  2616.004
 607  2681.166
 608  2492.773
 609  2471.896
 610  2297.82
 611  2079.286
 612  1818.315
 613  1674.345
 614  1665.523
 615  1702.723
 616  1723.833
 617  1748.79
 618  1687.882
 619  1651.232
 620  1573.248
 621  1699.58
 622  1649.593
 623  1582.873
 624  1535.119
 625  1517.241
 626  1436.241
 627  1360.064
 628  1407.58
 629  1445.513
 630  1370.712
 631  1467.56
 632  1510.114
 633  1555.046
 634  1495.263
 635  1541.202
 636  1537.287
 637  1549.055
 638  1482.193
 639  1472.133
 640  1416.928
 641  1318.572
 642  1392.034
 643  1446.564
 644  1502.24
 645  1510.868
 646  1512.896
 647  1495.998
 648  1454.601
 649  1420.211
 650  1430.64
 651  1378.411
 652  1546.484
 653  1567.178
 654  1578.21
 655  1525.234
 656  1499.653
 657  1510.065
 658  1502.169
 659  1474.895
 660  1545.791
 661  1396.951
 662  1462.585
 663  1346
 664  1456.798
 665  1500.632
 666  1584.083
 667  1643.373
 668  1745.632
 669  1783.883
 670  1730.819
 671  1755.797
 672  1688.211
 673  1635.807
 674  1594.613
 675  1548.788
 676  1636.106
 677  1756.232
 678  1838.458
 679  1836.978
 680  1698.179
 681  1589.266
 682  1608.17
 683  1671.433
 684  1763.992
 685  1749.018
 686  1791.831
 687  1751.994
 688  1760.949
 689  1772.648
 690  1793.418
 691  1810.026
 692  1692.888
 693  1658.177
 694  1495.388
 695  1615.688
 696  1769.176
 697  1800.835
 698  1695.894
 699  1588
 700  1673.969
 701  1802.978
 702  1709.234
 703  1626.2
 704  1562.155
 705  1526.561
 706  1385.939
 707  1431.616
 708  1577.691
 709  1715.71
 710  1852.433
 711  1853.836
 712  1738.381
 713  1595.783
 714  1621.648
 715  1813.538
 716  1872.227
 717  1942.393
 718  1813.881
 719  1648.025
 720  1592.099
 721  1557.936
 722  1699.885
 723  1758.783
 724  1710.307
 725  1701.903
 726  1609.817
 727  1525.097
 728  1597.598
 729  1614.167
 730  1609.623
 731  1505.501
 732  1502.543
 733  1414.89
 734  1457.868
 735  1486.234
 736  1389.417
 737  1289.178
 738  1314.476
 739  1371.194
 740  1425.166
 741  1374.194
 742  1458.715
 743  1489.26
 744  1528.856
 745  1575.121
 746  1427.908
 747  1465.471
 748  1491.596
 749  1669.142
 750  1680.311
 751  1581.63
 752  1523.945
 753  1452.274
 754  1656.446
 755  1763.454
 756  1851.94
 757  1786.985
 758  1637.01
 759  1508.865
 760  1473.907
 761  1649.571
 762  1619.333
 763  1463.465
 764  1384.026
 765  1604.494
 766  1683.845
 767  1704.211
 768  1558.36
 769  1599.741
 770  1656.468
 771  1588.558
 772  1552.636
 773  1525.108
 774  1646.828
 775  1690.572
 776  1622.007
 777  1536.172
 778  1646.509
 779  1832.426
 780  1802.062
 781  1789.119
 782  1673.848
 783  1630.895
 784  1527.851
 785  1299.835
 786  1187.644
 787  1258.651
 788  1433.317
 789  1457.651
 790  1603.694
 791  1770.352
 792  1915.577
 793  1839.451
 794  1846.172
 795  1849.225
 796  1825.542
 797  1736.691
 798  1765.687
 799  1713.582
 800  1711.686
 801  1735.726
 802  1767.431
 803  1794.32
 804  1586.635
 805  1522.482
 806  1447.388
 807  1565.261
 808  1709.478
 809  1732.545
 810  1823.48
 811  1760.665
 812  1684.696
 813  1479.613
 814  1459.938
 815  1465.821
 816  1522.352
 817  1483.793
 818  1497.618
 819  1549.265
 820  1510.313
 821  1464.455
 822  1531.099
 823  1597.967
 824  1485.783
 825  1410.055
 826  1498.985
 827  1557.625
 828  1506.469
 829  1426.567
 830  1459.861
 831  1498.295
 832  1602.27
 833  1604.656
 834  1669.438
 835  1713.61
 836  1798.367
 837  1728.254
 838  1546.359
 839  1492.155
 840  1660.39
 841  1716.882
 842  1693.25
 843  1546.943
 844  1562.293
 845  1598.705
 846  1671.092
 847  1679.5
 848  1716.922
 849  1636.374
 850  1677.617
 851  1614.225
 852  1510.655
 853  1452.033
 854  1427.787
 855  1371.781
 856  1386.556
 857  1427.562
 858  1581.148
 859  1601.786
 860  1554.496
 861  1483.307
 862  1463.211
 863  1555.002
 864  1647.888
 865  1595.802
 866  1653.867
 867  1607.59
 868  1527.979
 869  1489.185
 870  1461.809
 871  1510.452
 872  1554.646
 873  1660.838
 874  1806.809
 875  1880.067
 876  1841.707
 877  1721.225
 878  1799.52
 879  1784.146
 880  1731.684
 881  1646.201
 882  1600.611
 883  1614.334
 884  1505.59
 885  1531.552
 886  1633.169
 887  1736.452
 888  1721.297
 889  1613.026
 890  1572.167
 891  1659.883
 892  1802.36
 893  1962.009
 894  1780.164
 895  1648.452
 896  1405.854
 897  1298.792
 898  1192.914
 899  1239.506
 900  1281.959
 901  1294.551
 902  1296.479
 903  1372.167
 904  1465.636
 905  1439.207
 906  1406.454
 907  1305.23
 908  1422.253
 909  1511.697
 910  1478.753
 911  1502.214
 912  1480.539
 913  1530.98
 914  1492.153
 915  1517.628
 916  1632.197
 917  1736.58
 918  1713.155
 919  1592.118
 920  1527.987
 921  1521.186
 922  1491.374
 923  1461.741
 924  1349.791
 925  1250.46
 926  1213.771
 927  1220.297
 928  1187.665
 929  1174.913
 930  1298.522
 931  1396.2
 932  1345.004
 933  1273.699
 934  1236.765
 935  1323.566
 936  1313.054
 937  1462.991
 938  1540.88
 939  1438.514
 940  1470.178
 941  1568.292
 942  1674.157
 943  1471.515
 944  1318.906
 945  1230.305
 946  1244.25
 947  1358.212
 948  1479.473
 949  1598.65
 950  1475.895
 951  1510.054
 952  1517.682
 953  1529.301
 954  1562.485
 955  1550.736
 956  1616.631
 957  1588.012
 958  1492.48
 959  1500.373
 960  1584.291
 961  1648.668
 962  1694.687
 963  1623.882
 964  1692.272
 965  1750.945
 966  1762.763
 967  1739.79
 968  1648.578
 969  1565.256
 970  1474.987
 971  1460.287
 972  1480.414
 973  1565.066
 974  1603.08
 975  1655.743
 976  1641.401
 977  1580.368
 978  1519.558
 979  1414.477
 980  1442.033
 981  1485.706
 982  1543.041
 983  1610.618
 984  1694.745
 985  1670.341
 986  1548.942
 987  1360.464
 988  1321.166
 989  1342.238
 990  1346.196
 991  1365.034
 992  1434.703
 993  1642.662
 994  1743.174
 995  1775.38
 996  1687.563
 997  1549.073
 998  1426.588
 999  1387.347
1000  1445.985
1001  1397.542
1002  1366.485
1003  1459.032
1004  1386.534
1005  1353.703
1006  1275.598
1007  1366.041
1008  1253.889
1009  1272.836
1010  1152.921
1011  1296.572
1012  1427.692
1013  1565.495
1014  1733.266
1015  1774.356
1016  1696.234
1017  1580.274
1018  1512.898
1019  1526.416
1020  1607.674
1021  1587.51
1022  1480.266
1023  1370.252
