# Input file       =  1206013894.110423_cleaned.dat
# Candidate        =  PSR_0332+5434
# Telescope        =  AR
# Epoch_topo       =  58202.494364703969
# Epoch_bary       =  N/A
# T_sample         =  0.002
# Data Folded      =  7340032
# Data Avg         =  0.0790692565680423
# Data StdDev      =  1.00012728520084 
# Profile Bins     =  512
# Profile Avg      =  1133.2048131112  
# Profile StdDev   =  119.748276620349 
# Reduced chi-sqr  =  0.972
# Prob(Noise)      <  0.669   (~0.0 sigma)
# P_topo (ms)      =  714.57320548688   +/- 0.000324
# P'_topo (s/s)    =  -0                +/- 1.71e-10
# P''_topo (s/s^2) =  0                 +/- 7.55e-14
# P_bary (ms)      =  N/A
# P'_bary (s/s)    =  N/A
# P''_bary (s/s^2) =  N/A
# P_orb (s)        =  N/A
# asin(i)/c (s)    =  N/A
# eccentricity     =  N/A
# w (rad)          =  N/A
# T_peri           =  N/A
######################################################
   0  1153.826
   1  1155.271
   2  1111.135
   3  1127.008
   4  1099.67
   5  1176.94
   6  1096.187
   7  1158.514
   8  1106.424
   9  1094.561
  10  1090.96
  11  1128.642
  12  1131.006
  13  1072.613
  14  1212.047
  15  1162.612
  16  1169.525
  17  1170.995
  18  1208.353
  19  1263.143
  20  1216.155
  21  1084.268
  22  1112.876
  23  1233.229
  24  1217.501
  25  1270.868
  26  1272.04
  27  1196.069
  28  1217.008
  29  1226.643
  30  1174.958
  31  1222.705
  32  1303.369
  33  1228.763
  34  1106.174
  35  1141.879
  36  1235.648
  37  1139.566
  38  1135.677
  39  1136.059
  40  1205.542
  41  1271.18
  42  1134.486
  43  1174.812
  44  1190.224
  45  1252.159
  46  1235.383
  47  1262.588
  48  1284.307
  49  1248.862
  50  1240.92
  51  1179.505
  52  1140.45
  53  1224.863
  54  1167.887
  55  1180.681
  56  1181.694
  57  1235.625
  58  1228.265
  59  1158.654
  60  1206.862
  61  1201.093
  62  1221.014
  63  1233.826
  64  1188.065
  65  1206.259
  66  1195.32
  67  1206.793
  68  1209.782
  69  1143.199
  70  1132.491
  71  1159.023
  72  1183.362
  73  1179.182
  74  1138.602
  75  1125.921
  76  1088.065
  77  1089.822
  78  1060.093
  79  1062.513
  80  1110.338
  81  1227.827
  82  1154.231
  83  1143.265
  84  1140.552
  85  1136.399
  86  1141.013
  87  1139.593
  88  1109.155
  89  1079.328
  90  1096.666
  91  1064.838
  92  1171.508
  93  1182.354
  94  1061.384
  95  1083.953
  96  1114.458
  97  1087.405
  98  1137.442
  99  1147.556
 100  1168.688
 101  1153.728
 102  1168.764
 103  1119.37
 104  1129.195
 105  1090.293
 106  1096.218
 107  1113.826
 108  1118.213
 109  1079.483
 110  1068.853
 111  1097.469
 112  999.5674
 113  1012.373
 114  1128.05
 115  1159.142
 116  1148.94
 117  1152.381
 118  1133.534
 119  1152.402
 120  1217.379
 121  1194.007
 122  1181.779
 123  1222.287
 124  1195.762
 125  1185.361
 126  1186.643
 127  1129.448
 128  1184.441
 129  1199.64
 130  1204.447
 131  1212.798
 132  1235.03
 133  1183.603
 134  1214.233
 135  1232.821
 136  1117.307
 137  1054.45
 138  1134.845
 139  1220.934
 140  1278.419
 141  1178.353
 142  1118
 143  1188.264
 144  1244.26
 145  1224.516
 146  1338.545
 147  1499.348
 148  1608.226
 149  1653.36
 150  1700.538
 151  1528.62
 152  1292.256
 153  1167.369
 154  1163.801
 155  1139.208
 156  1222.157
 157  1156.71
 158  1143.989
 159  1181.752
 160  1180.039
 161  1212.255
 162  1194.749
 163  1163.942
 164  1220.904
 165  1217.492
 166  1164.286
 167  1162.048
 168  1097.862
 169  1061.909
 170  1108.563
 171  1166.222
 172  1166.39
 173  1151.939
 174  1163.244
 175  1170.942
 176  1093.005
 177  1054.921
 178  1132.514
 179  1132.051
 180  1185.43
 181  1128.99
 182  1027.481
 183  996.6028
 184  1042.625
 185  1087.584
 186  1113.331
 187  1144.872
 188  1065.486
 189  1052.401
 190  1040.061
 191  1044.947
 192  1097.102
 193  1178.715
 194  1149.515
 195  1083.734
 196  1118.638
 197  1079.748
 198  1122.224
 199  1069.369
 200  1146.537
 201  1138.647
 202  1112.623
 203  1156.15
 204  1190.342
 205  1082.882
 206  980.6949
 207  986.0093
 208  1108.945
 209  1105.949
 210  1099.039
 211  1056.899
 212  1018.158
 213  1107.184
 214  1062.556
 215  1060.568
 216  1202.142
 217  1166.033
 218  1082.961
 219  1010.97
 220  1050.976
 221  1031.937
 222  1082.075
 223  1075.678
 224  1099.155
 225  1091.03
 226  1127.571
 227  1067.842
 228  1192.457
 229  1257.511
 230  1259.187
 231  1253.235
 232  1187.749
 233  1223.759
 234  1249.075
 235  1191.584
 236  1135.955
 237  1115.834
 238  1242.606
 239  1148.047
 240  1138.344
 241  1153.978
 242  1098.329
 243  1084.018
 244  1075.448
 245  1128.964
 246  1155.173
 247  1198.135
 248  1087.45
 249  1076.96
 250  1172.418
 251  1181.966
 252  1078.656
 253  1111.446
 254  1094.565
 255  1157.555
 256  1148.02
 257  1150.877
 258  1084.534
 259  1129.508
 260  1208.487
 261  1138.712
 262  1049.222
 263  1140.729
 264  1139.288
 265  1126.09
 266  1086.833
 267  1048.776
 268  1058.622
 269  1073.83
 270  1128.987
 271  1050.171
 272  1087.705
 273  1028.83
 274  1068.972
 275  1115.694
 276  1144.799
 277  1089.068
 278  1008.499
 279  1012.809
 280  995.2021
 281  1012.976
 282  981.4625
 283  988.7046
 284  998.6151
 285  895.5298
 286  948.3565
 287  1076.129
 288  1083.736
 289  1055.909
 290  1041.581
 291  1130.38
 292  969.9312
 293  966.469
 294  1073.052
 295  1126.933
 296  1078.37
 297  1059.445
 298  1050.274
 299  1096.699
 300  1143.904
 301  1049.606
 302  1094.377
 303  1056.151
 304  1086.839
 305  1107.592
 306  1054.961
 307  992.4497
 308  1050.672
 309  1114.14
 310  1090.101
 311  1126.079
 312  1157.857
 313  1203.958
 314  1134.829
 315  1142.643
 316  1102.835
 317  1021.585
 318  1051.068
 319  1069.215
 320  1181.039
 321  1043.867
 322  1043.869
 323  1043.944
 324  1043.118
 325  1118.315
 326  1075.486
 327  985.2701
 328  960.0512
 329  1037.087
 330  1108.062
 331  1101.284
 332  1065.512
 333  976.3281
 334  990.7396
 335  1062.929
 336  977.5467
 337  988.3124
 338  969.2942
 339  1033.089
 340  1106.967
 341  1050.391
 342  984.1534
 343  1020.536
 344  1138.411
 345  1096.557
 346  1098.433
 347  1146.073
 348  1144.171
 349  1063.199
 350  1083.639
 351  1051.67
 352  1094.902
 353  1112.673
 354  1021.305
 355  1028.771
 356  1038.693
 357  974.1776
 358  1046.357
 359  1103.805
 360  1020.015
 361  969.8715
 362  1052.426
 363  1089.319
 364  1051.595
 365  1060.774
 366  994.4316
 367  934.0633
 368  981.5294
 369  1020.61
 370  1131.326
 371  1115.033
 372  1068.676
 373  1034.726
 374  981.8969
 375  1011.359
 376  1029.356
 377  1033.274
 378  1044.805
 379  1100.081
 380  1096.6
 381  1093.155
 382  1145.013
 383  1206.262
 384  973.0383
 385  1002.349
 386  1012.951
 387  1067.245
 388  1150.592
 389  1178.134
 390  1077.135
 391  1040.855
 392  1107.81
 393  1046.642
 394  1082.022
 395  1141.342
 396  1090.062
 397  1099.078
 398  1148.15
 399  1082.145
 400  1030.278
 401  1049.858
 402  1078.323
 403  1095.804
 404  1083.948
 405  1227.716
 406  1232.626
 407  1192.102
 408  1192.864
 409  1158.633
 410  1094.916
 411  1052.298
 412  1136.395
 413  1143.572
 414  1137.659
 415  1133.976
 416  1136.687
 417  1059.488
 418  1003.21
 419  1162.393
 420  1074.948
 421  1126.937
 422  1225.741
 423  1224.079
 424  1100.663
 425  1169.673
 426  1249.518
 427  1211.388
 428  1148.392
 429  1140.67
 430  1173.418
 431  1259.157
 432  1232.368
 433  1189.322
 434  1186.9
 435  1176.373
 436  1119.353
 437  1125.656
 438  1178.923
 439  1135.345
 440  1197.967
 441  1133.913
 442  1069.826
 443  1104.997
 444  1217.12
 445  1242.384
 446  1152.041
 447  1161.568
 448  1146.636
 449  1134.61
 450  1089.012
 451  1110.882
 452  1200.992
 453  1180.185
 454  1132.708
 455  1147.345
 456  1135.789
 457  1114.094
 458  1152.417
 459  1162.369
 460  1089.875
 461  1182.686
 462  1203.975
 463  1168.192
 464  1221.069
 465  1191.834
 466  1101.998
 467  1078.908
 468  1176.048
 469  1124.781
 470  1174.312
 471  1170.257
 472  1186.817
 473  1133.969
 474  1155.999
 475  1196.658
 476  1177.347
 477  1144.472
 478  1170.673
 479  1192.333
 480  1187.559
 481  1245.147
 482  1246.595
 483  1178.753
 484  1243.433
 485  1288.628
 486  1242.237
 487  1262.977
 488  1224.269
 489  1240.862
 490  1215.766
 491  1201.301
 492  1223.41
 493  1202.547
 494  1182.461
 495  1132.038
 496  1134.807
 497  1173.279
 498  1163.143
 499  1126.854
 500  1131.359
 501  1146.108
 502  1168.43
 503  1179.507
 504  1196.799
 505  1190.142
 506  1128.703
 507  1106.635
 508  1161.18
 509  1151.929
 510  1145.648
 511  1181.272
