# Input file       =  1206171627.11937_cleaned.dat
# Candidate        =  PSR_0332+5434
# Telescope        =  AR
# Epoch_topo       =  58204.319978233449
# Epoch_bary       =  N/A
# T_sample         =  0.002
# Data Folded      =  7208960
# Data Avg         =  0.272041572521397
# Data StdDev      =  6.57788022553014 
# Profile Bins     =  1024
# Profile Avg      =  1915.25645731303 
# Profile StdDev   =  551.915118619159 
# Reduced chi-sqr  =  2.609
# Prob(Noise)      <  4.08e-147   (~25.8 sigma)
# P_topo (ms)      =  714.572250675113  +/- 1.39e-05
# P'_topo (s/s)    =  -0                +/- 7.48e-12
# P''_topo (s/s^2) =  0                 +/- 3.36e-15
# P_bary (ms)      =  N/A
# P'_bary (s/s)    =  N/A
# P''_bary (s/s^2) =  N/A
# P_orb (s)        =  N/A
# asin(i)/c (s)    =  N/A
# eccentricity     =  N/A
# w (rad)          =  N/A
# T_peri           =  N/A
######################################################
   0  2699.662
   1  2540.899
   2  2143.427
   3  1665.937
   4  1463.424
   5  1395.494
   6  1619.512
   7  1749.044
   8  1975.134
   9  2123.638
  10  2170.292
  11  2202.15
  12  1989.495
  13  1978.167
  14  2081.709
  15  2227.819
  16  2245.077
  17  2007.065
  18  1768.484
  19  1326.632
  20  995.7426
  21  1032.769
  22  1007.941
  23  1291.11
  24  1676.072
  25  1955.731
  26  2139.413
  27  1953.878
  28  2141.219
  29  2127.178
  30  2308.565
  31  2741.32
  32  2794.082
  33  2630.636
  34  2443.175
  35  2166.611
  36  1907.558
  37  1215.704
  38  1220.669
  39  1324.927
  40  1409.75
  41  1578.711
  42  1516.573
  43  1805.299
  44  1705.898
  45  1859.229
  46  2112.323
  47  2328.46
  48  2704.628
  49  2682.402
  50  2401.587
  51  2059.098
  52  1578.477
  53  1292.972
  54  931.8315
  55  897.6083
  56  1283.766
  57  1352.55
  58  1616.875
  59  1793.096
  60  1867.989
  61  2042.729
  62  2112.676
  63  2514.306
  64  2544.213
  65  2695.034
  66  2827.867
  67  2479.226
  68  2039.325
  69  1602.736
  70  1429.702
  71  1393.673
  72  1354.407
  73  1829.938
  74  2056.811
  75  2209.756
  76  2203.614
  77  2336.151
  78  2282.702
  79  2336.657
  80  2395.961
  81  2599.45
  82  2260.717
  83  2089.634
  84  1880.365
  85  1452.891
  86  1228.703
  87  1006.967
  88  1164.184
  89  1282.909
  90  1700.45
  91  2180.552
  92  2210.458
  93  2075.433
  94  1954.35
  95  2208.654
  96  2500.467
  97  2602.691
  98  2813.215
  99  2802.662
 100  2459.621
 101  1962.213
 102  1547.141
 103  1356.811
 104  1270.954
 105  1374.033
 106  1557.557
 107  1661.768
 108  1939.286
 109  2077.033
 110  2022.308
 111  2003.612
 112  2154.553
 113  2328.794
 114  2516.617
 115  2499.095
 116  2367.189
 117  1986.198
 118  1561.698
 119  1330.138
 120  943.04
 121  940.1595
 122  979.9529
 123  1217.463
 124  1530.763
 125  1735.607
 126  1879.081
 127  1910.168
 128  2089.906
 129  2456.311
 130  2698.914
 131  2916.226
 132  2767.515
 133  2593.231
 134  2173.064
 135  1822.399
 136  1534.503
 137  1489.857
 138  1549.68
 139  1726.644
 140  1879.223
 141  1951.561
 142  1945.075
 143  1817.048
 144  1750.48
 145  1830.739
 146  2181.668
 147  2427.453
 148  2435.189
 149  2289.923
 150  1888.499
 151  1603.175
 152  1142.577
 153  933.0908
 154  1028.832
 155  1125.586
 156  1568.559
 157  1652.731
 158  2014.989
 159  1976.191
 160  1937.399
 161  2122.548
 162  2357.927
 163  2465.798
 164  2489.354
 165  2425.903
 166  2516.273
 167  2200.595
 168  1856.019
 169  1552.217
 170  1332.164
 171  1367.947
 172  1465.934
 173  1941.628
 174  2301.124
 175  2224.889
 176  2223.489
 177  2071.232
 178  2134.52
 179  1991.845
 180  2162.103
 181  2367.918
 182  2289.885
 183  1938.474
 184  1559.933
 185  1164.697
 186  1175.906
 187  1028.26
 188  1079.33
 189  1375.505
 190  1585.812
 191  1922.938
 192  1769.791
 193  1960.026
 194  2084.355
 195  2315.925
 196  2795.726
 197  2924.558
 198  2903.799
 199  2644.037
 200  2296.759
 201  2037.362
 202  1416.489
 203  1103.921
 204  1175.343
 205  1409.416
 206  1694.679
 207  1725.973
 208  1615.949
 209  1627.43
 210  1653.137
 211  1963.978
 212  2014.209
 213  2369.504
 214  2535.439
 215  2279.646
 216  1958.306
 217  1576.837
 218  1259.718
 219  979.5448
 220  908.1488
 221  1226.808
 222  1476.218
 223  1703.616
 224  1841.113
 225  1755.653
 226  1888.216
 227  1982.188
 228  2235.414
 229  2463.94
 230  2455.628
 231  2530.461
 232  2274.031
 233  1942.375
 234  1719.572
 235  1350.989
 236  1163.169
 237  1110.155
 238  1553.493
 239  1964.213
 240  2004.285
 241  2142.793
 242  2138.308
 243  2064.295
 244  1966.402
 245  2166.229
 246  2364.161
 247  2362.657
 248  2428.698
 249  2255.383
 250  1581.948
 251  963.7037
 252  764.4312
 253  944.0032
 254  1217.188
 255  1436.854
 256  1919.096
 257  1985.614
 258  2132.391
 259  2147.414
 260  2201.893
 261  2295.847
 262  2531.484
 263  2741.483
 264  2787.321
 265  2638.385
 266  2223.437
 267  1771.034
 268  1271.773
 269  1269.756
 270  1318.729
 271  1457.514
 272  1606.102
 273  1774.848
 274  1731.266
 275  1541.385
 276  1684.799
 277  1937.536
 278  2220.094
 279  2453.726
 280  2422.117
 281  2342.751
 282  1826.517
 283  1475.717
 284  1014.893
 285  990.4473
 286  1060.31
 287  1302.843
 288  1398.116
 289  1736.218
 290  1832.989
 291  1917.607
 292  1811.621
 293  1901.933
 294  2136.31
 295  2403.516
 296  2600.963
 297  2615.033
 298  2507.003
 299  2374.69
 300  2011.119
 301  1583.59
 302  1270.428
 303  1293.503
 304  1453.172
 305  1524.525
 306  1815.76
 307  2018.087
 308  2214.147
 309  2089.828
 310  2133.403
 311  2224.766
 312  2376.261
 313  2378.528
 314  2313.223
 315  1825.903
 316  1464.615
 317  1159.994
 318  1065.243
 319  1178.745
 320  1240.029
 321  1511.034
 322  1655.004
 323  1904.013
 324  2255.427
 325  2216.928
 326  2242.296
 327  2212.817
 328  2558.538
 329  2977.381
 330  2903.448
 331  2759.753
 332  2303.55
 333  2077.898
 334  1772.943
 335  1441.974
 336  1422.825
 337  1612.564
 338  1878.33
 339  2098.883
 340  1945.208
 341  1968.192
 342  1814.848
 343  2087.43
 344  2429.584
 345  2503.385
 346  2564.605
 347  2352.6
 348  1969.921
 349  1643.208
 350  1188.142
 351  1130.944
 352  894.0345
 353  1078.503
 354  1389.92
 355  1624.691
 356  1870.436
 357  1934.347
 358  1860.65
 359  2092.846
 360  2318.968
 361  2718.829
 362  2898.432
 363  2825.528
 364  2791.608
 365  2324.534
 366  1920.544
 367  1495.784
 368  1324.291
 369  1470.563
 370  1450.587
 371  1874.815
 372  1990.149
 373  1898.036
 374  1751.834
 375  1833.96
 376  2146.885
 377  2250.594
 378  2397.107
 379  2554.545
 380  2304.148
 381  1999.24
 382  1695.34
 383  1313.872
 384  1135.681
 385  919.9818
 386  1130.324
 387  1424.31
 388  1747.127
 389  2016.57
 390  1950.09
 391  2046.208
 392  2126.154
 393  2359.909
 394  2543.377
 395  2678.374
 396  2724.989
 397  2505.124
 398  2023.974
 399  1624.522
 400  1435.725
 401  1195.401
 402  1053.221
 403  1160.064
 404  1539.505
 405  1801.638
 406  1971.203
 407  1978.988
 408  1865.214
 409  1789.584
 410  2013.655
 411  2279.673
 412  2438.392
 413  2168.728
 414  2013.348
 415  1606.841
 416  1362.561
 417  1073.9
 418  845.1213
 419  1030.624
 420  1350.05
 421  1622.132
 422  1612.228
 423  1482.055
 424  1837.77
 425  1955.369
 426  2238.076
 427  2611.992
 428  2807.743
 429  2822.432
 430  2588.694
 431  2487.907
 432  2109.112
 433  1533.346
 434  1293.206
 435  1214.379
 436  1479.772
 437  1691.817
 438  1818.676
 439  1895.356
 440  1809.978
 441  1925.498
 442  1893.945
 443  2002.261
 444  2185.395
 445  2300.036
 446  2258.638
 447  2102.289
 448  1743.693
 449  1453.681
 450  1214.192
 451  1282.422
 452  1637.123
 453  1643.914
 454  1972.872
 455  1974.702
 456  2121.93
 457  2019.955
 458  2135.879
 459  2548.735
 460  2692.784
 461  2813.516
 462  2636.284
 463  2489.053
 464  2381.739
 465  2065.156
 466  1755.74
 467  1325.423
 468  1237.362
 469  1369.273
 470  1455.193
 471  1657.075
 472  1659.88
 473  1653.51
 474  1716.371
 475  1756.774
 476  2221.6
 477  2433.974
 478  2653.292
 479  2739.547
 480  2434.528
 481  1989.479
 482  1411.415
 483  975.5413
 484  974.5907
 485  951.3367
 486  1242.165
 487  1384.378
 488  1603.009
 489  1953.69
 490  1899.076
 491  2042.549
 492  2215.191
 493  2410.998
 494  2602.277
 495  2596.932
 496  2621.578
 497  2254.888
 498  1802.01
 499  1625.217
 500  1536.432
 501  1516.508
 502  1578.73
 503  1771.175
 504  2063.199
 505  1868.006
 506  1838.18
 507  1616.607
 508  1794.173
 509  2083.886
 510  2263.816
 511  2517.09
 512  2438.723
 513  1919.902
 514  1658.294
 515  1345.451
 516  1395.954
 517  1268.989
 518  1344.838
 519  1648.839
 520  1742.06
 521  1737.988
 522  1833.44
 523  1861.759
 524  2248.708
 525  2319.722
 526  2609.507
 527  2665.534
 528  2502.009
 529  2396.095
 530  2177.291
 531  1876.098
 532  1516.803
 533  1271.493
 534  1421.532
 535  1582.193
 536  1756.945
 537  1941.79
 538  1937.104
 539  2100.844
 540  1929.6
 541  1780.543
 542  1900.065
 543  2299.026
 544  2634.46
 545  2356.045
 546  1931.49
 547  1610.709
 548  1225.893
 549  1062.481
 550  1046.96
 551  1189.027
 552  1400.099
 553  1380.492
 554  1659.546
 555  1761.87
 556  1799.993
 557  2017.754
 558  2211.027
 559  2575.511
 560  2722.631
 561  2766.508
 562  2640.012
 563  2149.897
 564  1973.406
 565  1678.609
 566  1473.562
 567  1377.772
 568  1433.993
 569  1753.22
 570  1930.204
 571  1998.975
 572  1835.707
 573  1679.201
 574  1809.56
 575  1914.174
 576  1978.855
 577  2217.429
 578  2230.135
 579  2267.043
 580  1706.969
 581  1299.206
 582  1236.468
 583  1187.535
 584  1314.733
 585  1436.172
 586  1690.079
 587  1962.24
 588  1849.225
 589  1964.902
 590  1988.63
 591  2206.876
 592  2447.693
 593  2585.613
 594  2687.239
 595  2571.918
 596  2439.032
 597  2181.716
 598  1802.087
 599  1742.187
 600  1711.325
 601  1935.481
 602  2429.478
 603  2952.36
 604  3103.209
 605  2890.28
 606  2956.057
 607  3214.705
 608  3115.325
 609  3178.876
 610  3221.177
 611  3001.426
 612  2605.111
 613  1903.618
 614  1449.382
 615  916.4886
 616  876.6046
 617  1263.824
 618  1415.618
 619  1627.415
 620  1791.906
 621  1861.144
 622  1913.75
 623  1791.786
 624  2262.762
 625  2497.724
 626  3027.566
 627  3140.106
 628  2855.07
 629  2473.805
 630  2206.791
 631  1875.371
 632  1668.27
 633  1509.909
 634  1816.568
 635  1868.477
 636  1741.781
 637  1760.73
 638  1606.65
 639  1658.579
 640  1578.301
 641  1979.62
 642  2433.704
 643  2479.499
 644  2560.881
 645  2396.517
 646  1947.601
 647  1674.797
 648  1377.34
 649  1410.848
 650  1267.638
 651  1310.746
 652  1748.901
 653  1678.465
 654  1860.364
 655  1820.538
 656  1980.806
 657  2380.481
 658  2392.878
 659  2516.835
 660  2347.264
 661  2311.364
 662  2329.24
 663  1894.504
 664  1658.059
 665  1301.68
 666  1384.192
 667  1637.868
 668  1868.537
 669  2144.695
 670  2256.442
 671  2244.421
 672  2149.812
 673  1991.426
 674  2198.342
 675  2463.28
 676  2598.523
 677  2554.014
 678  2014.695
 679  1553.254
 680  1149.633
 681  865.551
 682  1076.493
 683  1209.712
 684  1771.949
 685  2071.822
 686  2281.115
 687  2363.333
 688  2179.013
 689  2112.082
 690  2115.613
 691  2361.08
 692  2538.017
 693  2608.624
 694  2589.985
 695  2429.868
 696  1942.445
 697  1628.817
 698  1519.99
 699  1353.482
 700  1441.141
 701  1686.758
 702  2127.3
 703  2100.692
 704  1961.102
 705  1918.24
 706  1969.421
 707  2219.687
 708  2423.74
 709  2666.775
 710  2573.727
 711  2251.582
 712  1976.984
 713  1622.841
 714  1252.767
 715  1197.826
 716  1159.057
 717  1361.138
 718  1451.108
 719  1588.239
 720  1811.256
 721  1786.483
 722  2014.654
 723  2077.968
 724  2326.83
 725  2577.908
 726  2729.059
 727  2695.467
 728  2366.268
 729  2005.777
 730  1580.237
 731  1181.285
 732  1249.639
 733  1509.427
 734  1684.835
 735  1822.912
 736  1925.993
 737  2006.529
 738  1744.157
 739  1692.566
 740  1998.234
 741  2237.38
 742  2374.233
 743  2307.244
 744  2007.098
 745  1729.349
 746  1186.304
 747  1114.493
 748  821.7763
 749  874.4039
 750  1204.8
 751  1555.051
 752  1953.414
 753  1907.168
 754  1914.398
 755  1913.219
 756  2070.176
 757  2569.471
 758  2832.335
 759  2896.26
 760  2732.892
 761  2352.781
 762  2130.406
 763  1590.254
 764  1254.083
 765  1081.972
 766  1060.629
 767  1330.97
 768  1408.907
 769  1600.003
 770  1697.012
 771  1809.995
 772  2176.472
 773  2154.249
 774  2495.155
 775  2614.263
 776  2707.646
 777  2563.841
 778  2082.1
 779  1464.994
 780  966.2953
 781  777.3913
 782  1134.726
 783  1148.201
 784  1370.7
 785  1683.173
 786  1638.83
 787  1621.279
 788  1771.199
 789  2276.848
 790  2643.212
 791  2698.56
 792  3055.802
 793  2848.411
 794  2647.117
 795  2242.455
 796  1807.09
 797  1579.698
 798  1285.352
 799  1482.88
 800  1623.638
 801  1688.817
 802  1857.393
 803  1761.721
 804  1714.106
 805  1625.048
 806  1743.889
 807  2090.928
 808  2203.036
 809  2296.525
 810  2206.082
 811  1789.535
 812  1472.163
 813  1157.758
 814  1174.586
 815  1374.976
 816  1588.813
 817  1846.36
 818  1870.702
 819  1908.455
 820  1925.34
 821  1888.59
 822  2072.438
 823  2325.487
 824  2644.859
 825  2667.228
 826  2526.307
 827  2346.141
 828  2022.966
 829  1595.366
 830  1365.474
 831  1308.382
 832  1546.015
 833  1700.551
 834  2013.342
 835  2269.456
 836  2101.774
 837  2073.752
 838  1999.02
 839  2225.304
 840  2440.79
 841  2464.839
 842  2497.788
 843  2130.018
 844  1904.926
 845  1589.27
 846  1163.006
 847  898.314
 848  810.5421
 849  1137.131
 850  1640.279
 851  1851.569
 852  2009.194
 853  1979.708
 854  2040.928
 855  2230.255
 856  2367.737
 857  2636.806
 858  2601.893
 859  2447.874
 860  2455.166
 861  2058.715
 862  1840.798
 863  1449.388
 864  1503.81
 865  1699.541
 866  1976.506
 867  2223.173
 868  2229.278
 869  1969.607
 870  1833.864
 871  1614.063
 872  1962.329
 873  2226.966
 874  2464.117
 875  2378.74
 876  2252.727
 877  2113.484
 878  1682.596
 879  1125.95
 880  1101.05
 881  1227.378
 882  1611.928
 883  1841.817
 884  2078.176
 885  2119.107
 886  1778.924
 887  1943.424
 888  2119.607
 889  2354.109
 890  2492.703
 891  2565.715
 892  2581.209
 893  2184.116
 894  1841.334
 895  1599.851
 896  1459.367
 897  1534.971
 898  1639.167
 899  1835.625
 900  1956.985
 901  2023.565
 902  2120.44
 903  2174.297
 904  2196.341
 905  2255.396
 906  2395.399
 907  2638.491
 908  2721.901
 909  2376.557
 910  1967.922
 911  1336.103
 912  1016.757
 913  801.967
 914  930.5709
 915  1347.298
 916  1398.121
 917  1733.869
 918  1899.424
 919  2053.363
 920  2259.538
 921  2347.199
 922  2805.066
 923  2771.96
 924  2832.414
 925  2750.157
 926  2318.711
 927  1868.832
 928  1369.42
 929  1150.328
 930  1195.72
 931  1163.989
 932  1509.143
 933  1627.626
 934  1825.64
 935  2017.623
 936  1910.206
 937  1886.772
 938  1987.208
 939  2401.109
 940  2653.172
 941  2459.104
 942  2373.781
 943  2116.893
 944  1719.622
 945  1398.386
 946  999.0515
 947  1014.003
 948  1098.633
 949  1533.011
 950  1934.812
 951  1847.827
 952  1948.49
 953  1923.922
 954  2041.546
 955  2278.112
 956  2507.428
 957  2809.86
 958  2535.138
 959  2345.343
 960  2110.306
 961  1846.126
 962  1645.999
 963  1493.191
 964  1562.353
 965  1708.015
 966  1933.842
 967  2213.857
 968  2185.163
 969  1837.132
 970  1863.303
 971  2089.577
 972  2475.942
 973  2662.909
 974  2771.015
 975  2562.134
 976  1904.33
 977  1450.754
 978  1189.08
 979  1046.664
 980  1035.381
 981  1159.176
 982  1552.105
 983  1837.974
 984  1924.095
 985  2031.371
 986  1991.897
 987  2166.883
 988  2369.635
 989  2683.187
 990  2880.188
 991  2710.14
 992  2388.918
 993  2017.126
 994  1662.673
 995  1584.823
 996  1284.167
 997  1255.221
 998  1461.384
 999  1796.822
1000  1980.798
1001  1826.005
1002  1840.761
1003  1889.116
1004  2033.491
1005  2194.004
1006  2399.59
1007  2480.909
1008  2396.032
1009  2072.138
1010  1721.188
1011  1325.49
1012  1118.68
1013  1244.725
1014  1396.293
1015  1749.349
1016  1775.281
1017  1881.735
1018  1782.733
1019  1741.754
1020  1815.158
1021  1968.305
1022  2353.093
1023  2571.725
