# Input file       =  1206013894.110423_cleaned.dat
# Candidate        =  PSR_0332+5434
# Telescope        =  AR
# Epoch_topo       =  58202.494364703969
# Epoch_bary       =  N/A
# T_sample         =  0.002
# Data Folded      =  7340032
# Data Avg         =  0.498071515221714
# Data StdDev      =  6.14507208118364 
# Profile Bins     =  512
# Profile Avg      =  7138.08176093222 
# Profile StdDev   =  735.768139034211 
# Reduced chi-sqr  =  0.744
# Prob(Noise)      <  1   (~0.0 sigma)
# P_topo (ms)      =  714.573205461121  +/- 0.0011
# P'_topo (s/s)    =  -0                +/- 5.81e-10
# P''_topo (s/s^2) =  0                 +/- 2.56e-13
# P_bary (ms)      =  N/A
# P'_bary (s/s)    =  N/A
# P''_bary (s/s^2) =  N/A
# P_orb (s)        =  N/A
# asin(i)/c (s)    =  N/A
# eccentricity     =  N/A
# w (rad)          =  N/A
# T_peri           =  N/A
######################################################
   0  6104.363
   1  6526.509
   2  6422.862
   3  6229.313
   4  6255.527
   5  6394.966
   6  6412.422
   7  6441.868
   8  6200.857
   9  6043.938
  10  6262.047
  11  6404.94
  12  6738.417
  13  6760.541
  14  6630.033
  15  6682.427
  16  6374.347
  17  6301.216
  18  6502.543
  19  6567.614
  20  6513.737
  21  6826.682
  22  6996.403
  23  6888.225
  24  6944.676
  25  7473.351
  26  6480.347
  27  6452.261
  28  6661.66
  29  6754.549
  30  6963.174
  31  7100.029
  32  6959.195
  33  6797.436
  34  6969.646
  35  6472.157
  36  6550.397
  37  6611.667
  38  6617.565
  39  6813.764
  40  7082.724
  41  6797.095
  42  6487.567
  43  6455.719
  44  6658.33
  45  6715.872
  46  6503.338
  47  6898.299
  48  7079.783
  49  6845.969
  50  6958.196
  51  7120.825
  52  6884.379
  53  6428.073
  54  6611.349
  55  6867.458
  56  7005.879
  57  6952.035
  58  6864.764
  59  6829.666
  60  6374.937
  61  6875.808
  62  6874.185
  63  6943.283
  64  7373.54
  65  7423.267
  66  7166.984
  67  7228.795
  68  7490.713
  69  7416.398
  70  7321.576
  71  7023.154
  72  7160.26
  73  7554.171
  74  7716.924
  75  7626.488
  76  7588.427
  77  7551.364
  78  7219.691
  79  7319.979
  80  7535.247
  81  7268.921
  82  7497.939
  83  7317.794
  84  6934.046
  85  6985.774
  86  7531.759
  87  7580.211
  88  7342.253
  89  7257.457
  90  7349.906
  91  7238.907
  92  7051.009
  93  7166.249
  94  7533.616
  95  7482.982
  96  7254.054
  97  7217.627
  98  7080.229
  99  7052.921
 100  7060.465
 101  7095.603
 102  6936.029
 103  7199.031
 104  7495.963
 105  7276.68
 106  7412.958
 107  7326.087
 108  6981.213
 109  6611.07
 110  6932.227
 111  6630.401
 112  6870.669
 113  6628.692
 114  6784.991
 115  6802.754
 116  6880.915
 117  7081.857
 118  7121.145
 119  7038.674
 120  7215.396
 121  7356.618
 122  7375.336
 123  7682.101
 124  7717.458
 125  7358.88
 126  7523.933
 127  7608.169
 128  7475.382
 129  7419.139
 130  7354.504
 131  7334.278
 132  7269.965
 133  7299.135
 134  7416.929
 135  7301.59
 136  7154.467
 137  7055.688
 138  6954.505
 139  7102.686
 140  7049.929
 141  6898.787
 142  6903.909
 143  6975.918
 144  7172.586
 145  7016.519
 146  7208.7
 147  7333.942
 148  7119.969
 149  7006.356
 150  7221.48
 151  7144.8
 152  7076.309
 153  7305.068
 154  7281.728
 155  7332.798
 156  7208.763
 157  7090.533
 158  6969.298
 159  7323.917
 160  6912.693
 161  7028.982
 162  6959.695
 163  6977.861
 164  6688.205
 165  6805.432
 166  7025.54
 167  6722.847
 168  7164.307
 169  7138.72
 170  7168.388
 171  7393.626
 172  7408.786
 173  7597.04
 174  7484.271
 175  6860.978
 176  6872.104
 177  7368.985
 178  7415.019
 179  7638.989
 180  7608.088
 181  7259.701
 182  7235.696
 183  7265.238
 184  7249.297
 185  7323.815
 186  7611.074
 187  7373.6
 188  6727.027
 189  6819.036
 190  7178.407
 191  6965.675
 192  6937.788
 193  6995.176
 194  7031.04
 195  7339.233
 196  7057.957
 197  7230.518
 198  7502.044
 199  7796.564
 200  7583.681
 201  7612.952
 202  7830.344
 203  7660.891
 204  7665.726
 205  7507.296
 206  7162.055
 207  7426.266
 208  7110.655
 209  7186.602
 210  7328.684
 211  7561.245
 212  7584.31
 213  7313.296
 214  7555.352
 215  7548.843
 216  7400.692
 217  7359.039
 218  7229.172
 219  7365.295
 220  7338.448
 221  7484.781
 222  7557.066
 223  7308.642
 224  7234.133
 225  7122.323
 226  7284.149
 227  7368.104
 228  7323.91
 229  7070.979
 230  7082.347
 231  7230.413
 232  7221.974
 233  7040.318
 234  7140.996
 235  7572.966
 236  7230.378
 237  7113.342
 238  7181.36
 239  7279.485
 240  7402.584
 241  7286.605
 242  7285.636
 243  7268.873
 244  7265.381
 245  7104.745
 246  7483.946
 247  7824.319
 248  7454.741
 249  7388.759
 250  7399.141
 251  7330.579
 252  7434.906
 253  7436.233
 254  7694.931
 255  7457.112
 256  7533.093
 257  7310.536
 258  7361.623
 259  7143.997
 260  7140.463
 261  7135.061
 262  6958.692
 263  6842.654
 264  6871.276
 265  7085.326
 266  6711.112
 267  6682.906
 268  7070.076
 269  7190.287
 270  7221.224
 271  7405.772
 272  7267.673
 273  7340.111
 274  7682.264
 275  7859.791
 276  7591.029
 277  7658.794
 278  7713.338
 279  7710.716
 280  7666.951
 281  7522.54
 282  7630.469
 283  7973.402
 284  7913.921
 285  7835.234
 286  7684.099
 287  7668.967
 288  7755.348
 289  7858.606
 290  7419.797
 291  6916.337
 292  7256.754
 293  7566.989
 294  7821.246
 295  7534.595
 296  7323.561
 297  7517.694
 298  7629.543
 299  7517.629
 300  8176.64
 301  8826.304
 302  9136.755
 303  9218.997
 304  9523.895
 305  8967.109
 306  8134.498
 307  7603.976
 308  7617.152
 309  7535.755
 310  7652.407
 311  7581.355
 312  7482.951
 313  7654.187
 314  7710.67
 315  7717.023
 316  7741.035
 317  7583.868
 318  7837.824
 319  8018.76
 320  7778.118
 321  7542.914
 322  7263.571
 323  7261.524
 324  7324.203
 325  7423.375
 326  7682.525
 327  7615.56
 328  7295.783
 329  7381.105
 330  7361.917
 331  7168.776
 332  7308.734
 333  7357.985
 334  7319.083
 335  7134.169
 336  6727.669
 337  6767.065
 338  7120.274
 339  7292.826
 340  7170.497
 341  7291.486
 342  6993.429
 343  6975.348
 344  6935.848
 345  6989.027
 346  7252.81
 347  7464.024
 348  7301.46
 349  7115.075
 350  7171.029
 351  7275.371
 352  7241.889
 353  6799.704
 354  7220.626
 355  7559.566
 356  7301.893
 357  7198.27
 358  7148.742
 359  7025.883
 360  6634.791
 361  6528.768
 362  6893.236
 363  6935.635
 364  6900.289
 365  6795.93
 366  6398.303
 367  6914.114
 368  7126.302
 369  6937.499
 370  7336.988
 371  7369.204
 372  7195.169
 373  6890.848
 374  6946.581
 375  6894.999
 376  7057.604
 377  7076.931
 378  7153.055
 379  7105.392
 380  7409.626
 381  7265.044
 382  7734.319
 383  8115.28
 384  8165.888
 385  8033.596
 386  7709.034
 387  7931.388
 388  8283.418
 389  8078.493
 390  7758.739
 391  7422.233
 392  7702.607
 393  7365.67
 394  7215.764
 395  7295.08
 396  7217.221
 397  6953.775
 398  6845.967
 399  6926.194
 400  7044.489
 401  7498.595
 402  7170.518
 403  6813.575
 404  6902.221
 405  7110.754
 406  6742.29
 407  6855.765
 408  6851.89
 409  7006.129
 410  6915.496
 411  6921.671
 412  6807.905
 413  6943.648
 414  7468.404
 415  7322.268
 416  6682.258
 417  6815.456
 418  6805.932
 419  6583.373
 420  6794.044
 421  6696.199
 422  6856.52
 423  6658.259
 424  6938.478
 425  6588.917
 426  6770.784
 427  6616.831
 428  6539.723
 429  6568.741
 430  6883.708
 431  6911.679
 432  6382.028
 433  6434.481
 434  6402.196
 435  6451.742
 436  6294.658
 437  6298.742
 438  6376.871
 439  5863.979
 440  5955.201
 441  6474.312
 442  6609.843
 443  6747.915
 444  6668.039
 445  7147.23
 446  6498.754
 447  6356.646
 448  6794.297
 449  6994.334
 450  7161.352
 451  6945.399
 452  6968.061
 453  6964.626
 454  7275.371
 455  6908.358
 456  7144.575
 457  7034.203
 458  7147.228
 459  7263.705
 460  7103.79
 461  6947.744
 462  7024.917
 463  7433.136
 464  7337.163
 465  7569.927
 466  7765.337
 467  8061.798
 468  7783.588
 469  7724.044
 470  7689.771
 471  7359.796
 472  7452.668
 473  7317.201
 474  7682.305
 475  7349.398
 476  6955.492
 477  7053.174
 478  7049.662
 479  7277.961
 480  7154.161
 481  6729.715
 482  6540.437
 483  6570.356
 484  6844.472
 485  6859.709
 486  6700.009
 487  6321.686
 488  6201.393
 489  6492.924
 490  6199.965
 491  6170.794
 492  6174.041
 493  6603.018
 494  6771.759
 495  6535.516
 496  6459.427
 497  6417.12
 498  6847.642
 499  6746.378
 500  6645.558
 501  6729.93
 502  6961.789
 503  6704.274
 504  6576.266
 505  6700.556
 506  6801.726
 507  6799.756
 508  6411.007
 509  6345.279
 510  6238.705
 511  5849.013
