# Input file       =  1206201210.122017_cleaned.dat
# Candidate        =  PSR_0332+5434
# Telescope        =  AR
# Epoch_topo       =  58204.662374097417
# Epoch_bary       =  N/A
# T_sample         =  0.002
# Data Folded      =  7340032
# Data Avg         =  0.24345089385315 
# Data StdDev      =  6.47913445600288 
# Profile Bins     =  1024
# Profile Avg      =  1745.03194787477 
# Profile StdDev   =  548.549711409068 
# Reduced chi-sqr  =  0.562
# Prob(Noise)      <  1   (~0.0 sigma)
# P_topo (ms)      =  714.572422979611  +/- 0.000616
# P'_topo (s/s)    =  -0                +/- 3.25e-10
# P''_topo (s/s^2) =  0                 +/- 1.44e-13
# P_bary (ms)      =  N/A
# P'_bary (s/s)    =  N/A
# P''_bary (s/s^2) =  N/A
# P_orb (s)        =  N/A
# asin(i)/c (s)    =  N/A
# eccentricity     =  N/A
# w (rad)          =  N/A
# T_peri           =  N/A
######################################################
   0  1932.98
   1  1963.839
   2  1838.721
   3  1768.704
   4  1730.859
   5  1694.736
   6  1696.733
   7  1773.857
   8  1748.584
   9  1694.405
  10  1707.344
  11  1813.703
  12  1867.275
  13  1997.148
  14  2015.613
  15  2008.481
  16  2047.805
  17  2048.384
  18  1926.553
  19  1699.665
  20  1719.141
  21  1670.625
  22  1751.896
  23  1626.532
  24  1677.465
  25  1557.527
  26  1499.309
  27  1548.94
  28  1572.89
  29  1586.945
  30  1428.51
  31  1363.601
  32  1365.23
  33  1507.058
  34  1575.754
  35  1629.285
  36  1479.046
  37  1461.878
  38  1595.65
  39  1645.715
  40  1588.114
  41  1561.164
  42  1555.609
  43  1773.683
  44  1660.927
  45  1668.641
  46  1608.928
  47  1761.05
  48  1713.159
  49  1946.871
  50  1882.095
  51  1761.356
  52  1451.512
  53  1524.264
  54  1566.614
  55  1746.097
  56  1791.454
  57  1846.954
  58  1685.952
  59  1611.608
  60  1577.436
  61  1555.203
  62  1649.279
  63  1672.117
  64  1801.905
  65  1873.934
  66  1812.903
  67  1923.775
  68  1840.723
  69  1814.069
  70  1842.439
  71  1899.872
  72  1803.308
  73  1653.776
  74  1718.838
  75  1903.212
  76  1896.496
  77  1839.397
  78  1705.3
  79  1635.631
  80  1715.857
  81  1717.201
  82  1588.406
  83  1525.684
  84  1492.967
  85  1499.613
  86  1627.157
  87  1715.45
  88  1851.768
  89  1731.335
  90  1723.916
  91  1635.143
  92  1467.374
  93  1371.178
  94  1397.36
  95  1603.435
  96  1667.439
  97  1662.595
  98  1664.531
  99  1642.758
 100  1594.046
 101  1584.933
 102  1629.543
 103  1689.196
 104  1630.778
 105  1692.665
 106  1770.121
 107  1879.246
 108  1792.002
 109  1754.561
 110  1731.865
 111  1632.58
 112  1471.695
 113  1601.771
 114  1731.632
 115  1825.135
 116  1826.259
 117  1907.08
 118  1993.444
 119  1914.457
 120  1884.586
 121  1735.613
 122  1708.687
 123  1754.306
 124  1842.026
 125  1979.476
 126  1971.401
 127  2018.133
 128  2181.735
 129  2194.418
 130  2089.088
 131  1869.053
 132  1764.135
 133  1905.488
 134  1984.166
 135  2062.239
 136  1958.662
 137  1916.58
 138  1934.289
 139  2011.084
 140  2121.831
 141  1992.681
 142  1903.911
 143  1842.98
 144  2023.63
 145  2029.72
 146  1958.944
 147  1949.205
 148  1996.252
 149  2043.986
 150  1966.424
 151  2084.395
 152  2126.839
 153  2214.311
 154  2162.324
 155  2119.285
 156  2094.833
 157  1892.101
 158  1868.199
 159  1927.543
 160  1954.978
 161  1924.141
 162  1859.005
 163  1914.814
 164  1943.989
 165  1995.649
 166  2028.997
 167  2060.101
 168  1935.477
 169  1776.549
 170  1719.974
 171  1785.405
 172  1841.988
 173  1725.186
 174  1697.659
 175  1639.153
 176  1731.464
 177  1745.888
 178  1904.064
 179  1896.132
 180  1717.71
 181  1568.454
 182  1537.568
 183  1568.394
 184  1560.874
 185  1498.011
 186  1553.207
 187  1452.936
 188  1495.183
 189  1511.11
 190  1669.92
 191  1648.575
 192  1632.104
 193  1541.794
 194  1624.224
 195  1696.623
 196  1651.748
 197  1438.321
 198  1333.135
 199  1382.704
 200  1513.848
 201  1560.067
 202  1508.483
 203  1493.32
 204  1625.027
 205  1686.069
 206  1656.912
 207  1485.916
 208  1526.964
 209  1593.799
 210  1727.088
 211  1698.243
 212  1746.524
 213  1736.922
 214  1680.923
 215  1708.546
 216  1731.096
 217  1845.571
 218  1752.846
 219  1698.095
 220  1637.69
 221  1763.423
 222  1783.008
 223  1840.774
 224  1829.928
 225  1688.654
 226  1553.664
 227  1536.617
 228  1581.144
 229  1606.183
 230  1643.215
 231  1793.779
 232  1808.735
 233  1668.334
 234  1566.68
 235  1539.009
 236  1532.359
 237  1670.917
 238  1691.394
 239  1677.269
 240  1486.03
 241  1488.671
 242  1695.077
 243  1840.216
 244  1771.066
 245  1546.757
 246  1330.297
 247  1246.588
 248  1268.13
 249  1243.318
 250  1320.179
 251  1373.223
 252  1353.795
 253  1473.53
 254  1492.355
 255  1512.711
 256  1391.759
 257  1614.821
 258  1694.579
 259  1787.318
 260  1752.578
 261  1799.488
 262  1805.147
 263  1842.398
 264  1771.071
 265  1881.584
 266  1914.869
 267  1918.645
 268  1903.278
 269  1886.384
 270  1872.596
 271  1845.113
 272  1776.227
 273  1903.55
 274  1950.206
 275  1877.752
 276  1788.56
 277  1867.105
 278  2077.3
 279  2073.798
 280  1933.546
 281  1881.447
 282  1952.552
 283  2098.781
 284  2166.096
 285  2219.456
 286  2164.364
 287  2129.143
 288  2036.482
 289  2061.539
 290  1966.951
 291  2045.141
 292  2068.938
 293  2153.394
 294  2156.151
 295  2118.457
 296  2176.712
 297  2125.295
 298  2040.531
 299  2116.436
 300  2095.949
 301  2139.373
 302  2024.732
 303  2034.475
 304  2002.3
 305  1896.229
 306  1738.388
 307  1705.409
 308  1780.148
 309  1869
 310  1775.594
 311  1937.287
 312  2039.574
 313  2137.11
 314  2098.462
 315  2082.86
 316  2150.692
 317  1995.643
 318  1840.351
 319  1631.089
 320  1651.225
 321  1780.807
 322  1903.839
 323  1983.318
 324  2048.201
 325  2049.961
 326  1873.651
 327  1745.946
 328  1782.745
 329  1791.692
 330  1766.897
 331  1780.394
 332  1953.21
 333  2176.505
 334  2348.764
 335  2354.422
 336  2252.512
 337  2038.519
 338  1984.163
 339  1965.03
 340  2032.668
 341  1967.378
 342  2105.776
 343  2125.627
 344  2158.761
 345  2139.514
 346  2086.465
 347  1831.921
 348  1832.998
 349  1902.982
 350  2000.89
 351  1991.149
 352  2046.095
 353  2005.24
 354  1816.025
 355  1612.864
 356  1625.621
 357  1760.4
 358  1850.026
 359  1913.562
 360  1846.26
 361  1916.095
 362  1898.333
 363  1820.464
 364  1608.492
 365  1474.384
 366  1518.298
 367  1707.516
 368  1838.432
 369  1875.072
 370  1775.366
 371  1687.776
 372  1612.084
 373  1582.829
 374  1584.501
 375  1652.073
 376  1627.844
 377  1707.671
 378  1706.369
 379  1697.359
 380  1596.401
 381  1594.041
 382  1628.301
 383  1668.133
 384  1652.894
 385  1753.98
 386  1688.319
 387  1654.372
 388  1553.318
 389  1565.213
 390  1651.678
 391  1689.787
 392  1695.35
 393  1802.772
 394  1755.541
 395  1758.863
 396  1626.276
 397  1639.583
 398  1650.328
 399  1698.027
 400  1684.953
 401  1709.816
 402  1762.659
 403  1759.548
 404  1759.018
 405  1588.441
 406  1615.156
 407  1645.202
 408  1779.549
 409  1759.454
 410  1845.047
 411  1903.292
 412  1904.61
 413  1757.172
 414  1633.482
 415  1761.862
 416  1806.344
 417  1824.454
 418  1829.537
 419  1972.948
 420  1942.072
 421  1799.298
 422  1724.691
 423  1778.371
 424  1641.666
 425  1505.971
 426  1625.034
 427  1797.785
 428  1929.112
 429  1956.23
 430  2006.626
 431  1905.783
 432  1980.918
 433  1975.974
 434  2013.543
 435  2042.037
 436  2038.254
 437  1879.091
 438  1757.682
 439  1662.013
 440  1729.241
 441  1759.777
 442  1773.177
 443  1772.473
 444  1910.182
 445  1955.601
 446  1973.057
 447  1978.942
 448  2030.383
 449  1958.82
 450  1880.829
 451  1818.669
 452  1885.169
 453  1901.972
 454  1849.375
 455  1750.447
 456  1846.74
 457  1923.053
 458  1990.651
 459  2060.644
 460  2177.976
 461  2232.33
 462  2228.947
 463  2169.792
 464  2171.415
 465  1943.367
 466  1905.425
 467  1852.307
 468  1850.011
 469  1721.693
 470  1833.724
 471  2049.277
 472  2094.713
 473  1960.505
 474  1843.754
 475  1844.5
 476  1821.994
 477  1758.802
 478  1733.032
 479  1663.138
 480  1747.536
 481  1752.764
 482  1880.547
 483  1832.318
 484  1920.403
 485  1895.584
 486  1888.083
 487  1836.654
 488  1783.153
 489  1803.447
 490  1726.648
 491  1778.965
 492  1718.237
 493  1711.081
 494  1616.245
 495  1609.846
 496  1682.958
 497  1696.141
 498  1618.983
 499  1508.051
 500  1529.617
 501  1593.598
 502  1567.144
 503  1513.244
 504  1556.26
 505  1680.719
 506  1698.403
 507  1681.247
 508  1684.936
 509  1567.983
 510  1513.877
 511  1508.156
 512  1710.973
 513  1716.616
 514  1724.366
 515  1683.738
 516  1668.744
 517  1635.846
 518  1572.424
 519  1665.78
 520  1828.718
 521  1820.227
 522  1758.699
 523  1639.358
 524  1680.278
 525  1739.783
 526  1855.81
 527  1826.665
 528  1597.585
 529  1365.876
 530  1330.331
 531  1271.945
 532  1228.867
 533  1151.627
 534  1235.362
 535  1300.698
 536  1339.281
 537  1299.041
 538  1422.954
 539  1535.187
 540  1543.898
 541  1475.663
 542  1612.988
 543  1440.304
 544  1337.424
 545  1262.117
 546  1283.005
 547  1177.117
 548  1154.099
 549  1290.009
 550  1508.79
 551  1543.262
 552  1304.453
 553  1167.458
 554  1268.912
 555  1428.32
 556  1464.284
 557  1536.515
 558  1399.677
 559  1299.677
 560  1445.044
 561  1605.94
 562  1524.683
 563  1457.328
 564  1326.602
 565  1297.827
 566  1320.203
 567  1558.729
 568  1592.954
 569  1517.218
 570  1553.101
 571  1576.564
 572  1626.11
 573  1625.063
 574  1581.118
 575  1514.676
 576  1400.444
 577  1401.699
 578  1519.324
 579  1419.726
 580  1312.573
 581  1384.679
 582  1626.843
 583  1820.823
 584  1746.515
 585  1673.102
 586  1636.059
 587  1605.185
 588  1650.32
 589  1713.536
 590  1865.14
 591  1867.54
 592  1939.385
 593  1888.631
 594  1909.381
 595  2033.252
 596  2145.631
 597  2287.585
 598  2230.99
 599  2225.139
 600  2349.076
 601  2496.466
 602  2619.957
 603  2641.896
 604  2851.033
 605  3051.327
 606  2979.254
 607  2749.409
 608  2591.93
 609  2458.538
 610  2427.783
 611  2109.11
 612  1943.337
 613  1769.495
 614  1801.606
 615  1805.414
 616  1660.505
 617  1581.101
 618  1503.215
 619  1602.708
 620  1744.333
 621  1911.457
 622  2110.558
 623  2103.073
 624  1970.339
 625  1773.105
 626  1701.816
 627  1633.473
 628  1641.842
 629  1680.795
 630  1698.918
 631  1756.089
 632  1789.896
 633  1788.364
 634  1811.082
 635  1809.058
 636  1918.052
 637  1832.044
 638  1577.119
 639  1419.74
 640  1370.427
 641  1456.63
 642  1384.663
 643  1474.427
 644  1520.668
 645  1527.401
 646  1469.434
 647  1510.687
 648  1472.287
 649  1567.385
 650  1711.642
 651  1706.098
 652  1808.071
 653  1770.845
 654  1801.297
 655  1686.882
 656  1654.614
 657  1617.367
 658  1608.971
 659  1671.724
 660  1779.587
 661  1712.337
 662  1679.715
 663  1652.573
 664  1610.067
 665  1606.013
 666  1556.171
 667  1770.149
 668  1757.559
 669  1757.539
 670  1691.911
 671  1706.254
 672  1684.079
 673  1529.024
 674  1544.217
 675  1718.677
 676  1899.675
 677  1790.172
 678  1712.768
 679  1621.255
 680  1645.843
 681  1552.863
 682  1611.783
 683  1794.973
 684  1794.192
 685  1752.834
 686  1663.679
 687  1812.066
 688  1859.328
 689  1830.52
 690  1812.729
 691  1753.056
 692  1786.633
 693  1853.079
 694  1856.822
 695  1672.765
 696  1646.603
 697  1858.197
 698  1899.866
 699  1854.827
 700  1874.408
 701  1934.683
 702  1921.734
 703  1799.721
 704  1952.013
 705  2011.392
 706  1980.507
 707  1973.483
 708  2052.845
 709  2063.186
 710  1948.298
 711  1988.068
 712  2027.518
 713  2009.097
 714  1979.977
 715  1902.724
 716  1880.991
 717  1850.685
 718  1780.727
 719  1956.693
 720  1974.951
 721  2051.983
 722  1849.33
 723  1889.26
 724  1845.282
 725  1935.571
 726  2042.821
 727  2146.766
 728  2076.514
 729  2057.604
 730  1896.682
 731  1767.42
 732  1699.164
 733  1673.768
 734  1765.077
 735  1853.923
 736  1933.819
 737  1872.155
 738  1854.532
 739  1824.756
 740  1777.387
 741  1849.212
 742  1910.339
 743  1957.379
 744  1871.568
 745  1799.276
 746  1780.142
 747  1869.945
 748  1954.087
 749  2029.784
 750  2006.701
 751  2023.703
 752  1880.423
 753  1648.882
 754  1474.952
 755  1510.094
 756  1709.397
 757  1907.609
 758  1882.798
 759  1755.554
 760  1739.311
 761  1649.512
 762  1620.235
 763  1608.111
 764  1638.489
 765  1803.696
 766  1723.874
 767  1779.774
 768  1700.333
 769  1737.629
 770  1659.826
 771  1651.542
 772  1585.044
 773  1669.314
 774  1590.079
 775  1588.464
 776  1517.13
 777  1423.152
 778  1473.025
 779  1611.415
 780  1751.009
 781  1735.567
 782  1763.871
 783  1871.465
 784  1741.281
 785  1754.221
 786  1719.969
 787  1852.132
 788  1809.097
 789  1683.812
 790  1713.118
 791  1770.551
 792  1794.839
 793  1781.388
 794  1779.791
 795  1847.855
 796  1849.411
 797  1848.161
 798  1900.888
 799  2006.335
 800  1971.223
 801  1941.272
 802  1919.91
 803  2012.144
 804  1979.78
 805  1984.492
 806  1858.346
 807  1849.649
 808  1848.233
 809  1833.173
 810  1685.036
 811  1642.24
 812  1627.131
 813  1617.627
 814  1554.618
 815  1529.262
 816  1579.715
 817  1562.278
 818  1665.586
 819  1652.556
 820  1656.217
 821  1612.377
 822  1588.266
 823  1763.416
 824  1719.425
 825  1659.009
 826  1485.753
 827  1639.101
 828  1811.064
 829  1926.476
 830  1938.523
 831  1961.874
 832  1933.002
 833  1964.359
 834  1963.641
 835  1931.633
 836  1881.796
 837  1957.665
 838  1907.425
 839  1986.184
 840  1976.141
 841  1968.446
 842  1916.914
 843  1937.383
 844  2056.486
 845  2040.826
 846  2042.992
 847  1915.676
 848  1899.239
 849  1841.531
 850  1812.799
 851  1606.575
 852  1613.828
 853  1629.737
 854  1803.883
 855  1765.933
 856  1745.943
 857  1663.18
 858  1546.344
 859  1568.592
 860  1645.521
 861  1742.129
 862  1513.691
 863  1450.91
 864  1410.502
 865  1548.15
 866  1465.578
 867  1486.7
 868  1520.779
 869  1554.366
 870  1585.031
 871  1681.64
 872  1703.126
 873  1687.004
 874  1686.325
 875  1730.594
 876  1681.433
 877  1578.282
 878  1639.123
 879  1746.671
 880  1737.291
 881  1679.637
 882  1712.963
 883  1794.14
 884  1783.606
 885  1745.877
 886  1815.425
 887  1680.779
 888  1661.191
 889  1594.824
 890  1512.152
 891  1492.516
 892  1443.008
 893  1564.764
 894  1565.215
 895  1590.442
 896  1730.252
 897  1817.367
 898  1813.129
 899  1668.742
 900  1551.68
 901  1650.893
 902  1698.397
 903  1762.773
 904  1794.504
 905  1882.813
 906  1885.749
 907  1757.939
 908  1693.882
 909  1692.745
 910  1665.206
 911  1619.093
 912  1582.598
 913  1555.73
 914  1520.955
 915  1552.879
 916  1476.053
 917  1478.518
 918  1470.855
 919  1593.436
 920  1572.727
 921  1608.054
 922  1703.628
 923  1915.409
 924  2087.806
 925  2011.98
 926  1771.434
 927  1702.615
 928  1641.483
 929  1839.851
 930  1766.55
 931  1721.841
 932  1521.906
 933  1621.639
 934  1606.904
 935  1621.244
 936  1432.315
 937  1391.915
 938  1477.852
 939  1555.454
 940  1639.392
 941  1552.319
 942  1653.711
 943  1625.646
 944  1655.542
 945  1653.77
 946  1685.946
 947  1762.488
 948  1741.972
 949  1619.446
 950  1512.934
 951  1346.988
 952  1230.094
 953  1214.844
 954  1335.144
 955  1278.552
 956  1391.401
 957  1443.335
 958  1618.814
 959  1693.842
 960  1621.234
 961  1703.387
 962  1661.365
 963  1564.698
 964  1526.409
 965  1496.802
 966  1507.22
 967  1392.771
 968  1306.016
 969  1156.023
 970  1106.156
 971  1277.979
 972  1541.125
 973  1569.894
 974  1440.578
 975  1399.862
 976  1569.449
 977  1513.182
 978  1365.402
 979  1336.231
 980  1297.357
 981  1412.491
 982  1437.115
 983  1440.06
 984  1473.76
 985  1524.716
 986  1497.133
 987  1435.219
 988  1318.12
 989  1536.487
 990  1599.526
 991  1750.125
 992  1719.647
 993  1737.552
 994  1663.293
 995  1646.899
 996  1708.484
 997  1787.027
 998  1688.005
 999  1456.847
1000  1335.349
1001  1262.897
1002  1351.759
1003  1474.584
1004  1739.877
1005  1823.274
1006  1890.585
1007  1780.879
1008  1600.135
1009  1530.506
1010  1558.47
1011  1584.744
1012  1649.772
1013  1705.638
1014  1657.718
1015  1815.721
1016  1859.885
1017  1864.177
1018  1730.561
1019  1819.853
1020  1943.003
1021  1888.233
1022  1712.478
1023  1842.189
