# Input file       =  1207924562.108558_cleaned.dat
# Candidate        =  PSR_0332+5434
# Telescope        =  AR
# Epoch_topo       =  58224.608577645347
# Epoch_bary       =  N/A
# T_sample         =  0.002
# Data Folded      =  7340032
# Data Avg         =  0.288038879061268
# Data StdDev      =  5.24764000549181 
# Profile Bins     =  1024
# Profile Avg      =  2064.68948173698 
# Profile StdDev   =  444.286413584798 
# Reduced chi-sqr  =  0.656
# Prob(Noise)      <  1   (~0.0 sigma)
# P_topo (ms)      =  714.55926009322   +/- 0.000436
# P'_topo (s/s)    =  -0                +/- 2.3e-10
# P''_topo (s/s^2) =  0                 +/- 1.02e-13
# P_bary (ms)      =  N/A
# P'_bary (s/s)    =  N/A
# P''_bary (s/s^2) =  N/A
# P_orb (s)        =  N/A
# asin(i)/c (s)    =  N/A
# eccentricity     =  N/A
# w (rad)          =  N/A
# T_peri           =  N/A
######################################################
   0  2079.233
   1  2084.337
   2  1991.92
   3  1970.018
   4  2051.85
   5  2082.933
   6  1986.933
   7  1968.169
   8  1978.54
   9  2002.924
  10  1925.411
  11  1865.832
  12  1854.924
  13  1950.976
  14  2041.263
  15  1979.217
  16  1858.029
  17  1753.978
  18  1770.188
  19  1799.943
  20  1862.385
  21  1974.46
  22  1944.546
  23  1872.215
  24  1795.698
  25  1779.135
  26  1736.91
  27  1770.015
  28  1952.739
  29  1953.527
  30  1910.793
  31  1763.984
  32  1902.99
  33  1973.523
  34  1818.154
  35  1821.775
  36  1847.792
  37  1916.75
  38  1891.682
  39  1866.624
  40  1993.442
  41  1984.746
  42  2077.361
  43  2175.903
  44  2053.161
  45  2087.617
  46  2138.357
  47  2245.322
  48  2064.341
  49  1871.072
  50  1800.27
  51  1890.867
  52  1972.666
  53  1941.485
  54  1905.852
  55  1988.15
  56  2092.216
  57  2097.434
  58  1943.179
  59  1799.826
  60  1805.951
  61  1936.98
  62  1998.239
  63  1938.612
  64  1961.964
  65  2023.265
  66  2022.392
  67  2083.554
  68  2012.421
  69  1982.416
  70  1955.33
  71  2055.201
  72  2086.232
  73  1972.519
  74  1916.476
  75  1929.691
  76  2038.31
  77  2057.177
  78  2079.19
  79  2147.643
  80  2311.513
  81  2417.236
  82  2443.342
  83  2388.398
  84  2302.03
  85  2166.709
  86  2084.538
  87  2257.029
  88  2175.871
  89  2173.524
  90  2099.571
  91  2057.482
  92  2107.676
  93  2050.624
  94  2015.047
  95  1965.932
  96  1993.79
  97  2045.72
  98  1957.875
  99  1850.101
 100  1853.993
 101  1880.15
 102  2049.294
 103  2060.061
 104  2004.119
 105  1980.511
 106  1986.308
 107  2124.519
 108  2085.659
 109  2082.543
 110  1969.967
 111  2020.155
 112  2128.09
 113  2127.006
 114  2096.546
 115  2119.09
 116  2082.858
 117  2002.485
 118  1999.936
 119  2113.205
 120  2120.919
 121  2053.677
 122  2050.059
 123  1968.685
 124  1804.229
 125  1800.625
 126  1892.223
 127  1990.898
 128  1935.095
 129  1964.135
 130  1997.917
 131  1935.511
 132  1885.754
 133  1933.579
 134  1985.026
 135  2031.681
 136  2054.99
 137  2129.883
 138  2057.316
 139  2153.561
 140  2204.406
 141  2296.679
 142  2163.139
 143  2176.248
 144  2138.782
 145  2133.552
 146  2070.164
 147  2019.788
 148  2026.854
 149  2134.75
 150  2174.104
 151  2231.979
 152  2205.889
 153  2154.509
 154  2053.28
 155  1962.192
 156  2077.755
 157  2259.096
 158  2346.672
 159  2312.317
 160  2257.968
 161  2262.014
 162  2242.793
 163  2206.374
 164  2182.285
 165  2313.002
 166  2392.959
 167  2254.721
 168  2223.693
 169  2304.938
 170  2491.653
 171  2523.131
 172  2377.013
 173  2230.376
 174  2056.719
 175  2080.842
 176  2177.55
 177  2186.109
 178  2136.519
 179  2075.041
 180  2114.398
 181  2086.43
 182  2084.874
 183  2108.398
 184  2206.725
 185  2231.872
 186  2213.942
 187  2179.426
 188  2162.315
 189  2178.823
 190  2166.929
 191  2024.291
 192  1831.168
 193  1787.481
 194  1850.487
 195  1832.594
 196  1785.05
 197  1779.586
 198  1955.466
 199  2100.37
 200  2147.992
 201  2155.17
 202  2084.936
 203  2129.199
 204  2129.562
 205  2261.693
 206  2285.226
 207  2194.079
 208  2140.436
 209  2091.938
 210  2164.524
 211  2143.847
 212  2091.89
 213  2132.981
 214  2205.897
 215  2184.893
 216  2191.241
 217  2178.609
 218  2141.396
 219  2089.878
 220  2010.007
 221  1983.473
 222  1907.189
 223  1855.697
 224  1840.461
 225  2021.284
 226  2089.383
 227  2250.351
 228  2123.898
 229  2048.148
 230  1991.266
 231  1915.588
 232  1982.241
 233  2063.097
 234  2276.731
 235  2255.542
 236  2164.646
 237  2095.686
 238  2106.296
 239  2180.987
 240  2137.925
 241  2095.781
 242  1960.081
 243  1942.318
 244  1989.77
 245  1985.12
 246  1997.506
 247  2028.115
 248  2163.006
 249  2102.315
 250  1971.174
 251  1859.312
 252  1837.908
 253  1866.44
 254  1878.048
 255  1861.212
 256  1872.661
 257  2049.186
 258  2143.458
 259  2030.929
 260  1965.81
 261  1959.436
 262  2047.07
 263  2008.01
 264  2077.193
 265  2017.468
 266  2025.341
 267  2053.934
 268  2028.137
 269  2113.98
 270  2075.705
 271  2222.377
 272  2291.768
 273  2287.617
 274  2216.779
 275  2287.407
 276  2362.277
 277  2244.045
 278  2212.467
 279  2202.99
 280  2150.37
 281  2034.359
 282  2019.01
 283  2088.226
 284  2041.279
 285  2074.007
 286  2133.718
 287  2198.557
 288  2251.346
 289  2143.196
 290  2013.924
 291  2006.847
 292  2040.781
 293  2117.273
 294  2149.616
 295  2031.232
 296  1967.719
 297  1975.698
 298  1993.34
 299  1960.531
 300  2060.351
 301  2185.709
 302  2300.743
 303  2277.019
 304  2209.388
 305  2225.129
 306  2123.075
 307  2102.32
 308  1916.095
 309  1795.263
 310  1782.453
 311  1873.726
 312  1998.46
 313  1945.26
 314  1941.157
 315  1745.742
 316  1792.962
 317  1875.169
 318  2021.299
 319  2097.487
 320  2107.49
 321  2047.57
 322  2005.162
 323  2087.489
 324  2181.75
 325  2126.331
 326  2117.445
 327  2008.214
 328  1977.707
 329  1922.06
 330  2032.04
 331  2244.045
 332  2345.587
 333  2427.73
 334  2372.041
 335  2332.011
 336  2277.315
 337  2223.643
 338  2175.75
 339  2168.389
 340  2162.212
 341  2228.327
 342  2234.861
 343  2227.915
 344  2246.368
 345  2103.183
 346  2068.74
 347  2043.49
 348  2092.084
 349  2081.913
 350  2031.896
 351  2008.515
 352  1972.995
 353  1903.009
 354  1852.204
 355  1868.737
 356  1806.526
 357  1825.155
 358  1841.888
 359  1853.802
 360  1762.229
 361  1828.214
 362  1900.204
 363  1791.509
 364  1690.856
 365  1663.499
 366  1718.049
 367  1686.199
 368  1799.902
 369  1861.099
 370  1893.033
 371  1761.473
 372  1667.287
 373  1683.877
 374  1689.408
 375  1784.354
 376  1695.91
 377  1735.125
 378  1817.413
 379  1803.023
 380  1805.454
 381  1809.195
 382  1895.444
 383  1828.031
 384  1759.067
 385  1670.51
 386  1610.604
 387  1680.628
 388  1707.589
 389  1831.327
 390  1903.54
 391  2071.656
 392  2126.728
 393  2077.222
 394  1897.211
 395  1779.027
 396  1766.052
 397  1802.06
 398  1719.151
 399  1766.82
 400  1844.789
 401  1801.063
 402  1728.59
 403  1773.579
 404  1836.762
 405  1972.746
 406  2031.736
 407  1905.62
 408  1776.35
 409  1737.736
 410  1783.796
 411  1745.73
 412  1871.224
 413  1872.22
 414  1917.992
 415  1796.093
 416  1891.644
 417  1914.317
 418  1907.867
 419  1947.9
 420  1870.481
 421  1744.535
 422  1733.668
 423  1832.172
 424  1881.802
 425  1779.493
 426  1838.692
 427  2128.574
 428  2116.478
 429  1993.414
 430  1978.32
 431  2089.422
 432  2237.625
 433  2229.742
 434  2215.112
 435  1994.947
 436  1825.709
 437  1748.569
 438  1964.315
 439  2104.123
 440  2128.665
 441  2081.642
 442  2073.676
 443  2126.411
 444  2162.203
 445  2122.083
 446  2067.633
 447  2150.826
 448  2194.581
 449  2123.762
 450  1959.953
 451  1839.138
 452  1772.9
 453  1841.766
 454  1973.328
 455  2088.859
 456  2113.003
 457  2097.823
 458  2028.14
 459  1969.161
 460  1843.39
 461  1881.821
 462  1941.77
 463  2028.237
 464  2036.602
 465  2027.03
 466  1929.696
 467  1902.393
 468  1851.769
 469  1927.429
 470  2106.973
 471  2223.63
 472  2156.115
 473  1932.951
 474  1920.438
 475  1912.551
 476  1937.657
 477  1939.172
 478  1927.512
 479  1858.379
 480  1893.683
 481  1906.284
 482  1986.827
 483  2017.121
 484  2075.168
 485  2095.625
 486  2102.177
 487  2148.494
 488  2246.312
 489  2326.779
 490  2357.558
 491  2270.027
 492  2203.285
 493  2053.676
 494  2047.902
 495  2023.252
 496  2047.44
 497  1976.16
 498  1932.915
 499  1944.067
 500  1848.921
 501  1847.669
 502  1965.041
 503  2162.255
 504  2140.469
 505  2159.4
 506  2138.764
 507  2098.48
 508  2048.854
 509  2003.536
 510  1996.51
 511  2085.907
 512  2078.719
 513  2008.807
 514  1954.255
 515  1889.338
 516  2049.96
 517  1997.146
 518  1954.275
 519  1941.142
 520  2002.626
 521  2146.693
 522  2264.134
 523  2320.298
 524  2257.068
 525  2230.471
 526  2167.258
 527  2229.146
 528  2179.72
 529  2276.314
 530  2263.042
 531  2285.667
 532  2262.112
 533  2240.051
 534  2286.906
 535  2277.299
 536  2336.891
 537  2243.189
 538  2263.76
 539  2168.586
 540  2233.889
 541  2214.424
 542  2179.086
 543  2188.635
 544  1998.161
 545  1920.184
 546  1775.811
 547  1886.004
 548  1846.736
 549  1877.113
 550  1843.296
 551  1850.432
 552  1870.222
 553  1907.247
 554  1869.688
 555  1663.693
 556  1580.648
 557  1655.239
 558  1772.651
 559  1870.193
 560  1978.597
 561  2005.287
 562  1907.125
 563  1879.771
 564  1937.54
 565  1926.319
 566  1911.824
 567  1945.365
 568  1974.672
 569  1971.782
 570  2015.134
 571  2124.088
 572  2096.194
 573  2057.881
 574  2018.763
 575  2040.448
 576  1899.654
 577  1859.444
 578  1897.315
 579  2056.597
 580  2127.294
 581  2149.458
 582  2150.651
 583  2058.988
 584  1939.728
 585  1831.196
 586  1894.605
 587  1897.069
 588  1895.28
 589  1995.317
 590  2114.434
 591  2197.479
 592  2303.925
 593  2437.331
 594  2423.396
 595  2459.916
 596  2525.63
 597  2635.34
 598  2684.701
 599  2740.587
 600  2831.931
 601  3058.982
 602  3141.878
 603  3089.563
 604  3080.487
 605  3054.903
 606  2986.564
 607  2827.425
 608  2604.16
 609  2494.538
 610  2523.012
 611  2499.426
 612  2414.927
 613  2273.737
 614  2197.23
 615  2169.708
 616  2117.384
 617  2165.646
 618  2314.318
 619  2335.444
 620  2269.712
 621  2111.759
 622  2095.134
 623  2094.793
 624  2083.766
 625  2129.75
 626  2237.938
 627  2368.538
 628  2306.212
 629  2099.601
 630  2000.572
 631  2005.255
 632  2154.902
 633  2223.441
 634  2294.822
 635  2315.097
 636  2458.863
 637  2557.835
 638  2626.761
 639  2487.42
 640  2309.052
 641  2230.731
 642  2255.481
 643  2315.329
 644  2330.268
 645  2214.377
 646  2161.565
 647  2166.628
 648  2225.491
 649  2286.105
 650  2332.157
 651  2458.638
 652  2529.396
 653  2573.1
 654  2458.361
 655  2402.731
 656  2330.487
 657  2314.522
 658  2301.879
 659  2289.104
 660  2322.258
 661  2317.763
 662  2382.366
 663  2365.205
 664  2288.757
 665  2241.993
 666  2190.184
 667  2204.364
 668  2155.149
 669  2044.468
 670  2073.683
 671  2013.127
 672  1978.331
 673  1915.352
 674  1876.438
 675  1807.508
 676  1918.315
 677  2088.114
 678  2116.72
 679  1970.35
 680  1993.337
 681  2052.215
 682  2016.161
 683  1920.041
 684  2004.66
 685  2030.749
 686  1959.574
 687  1899.814
 688  2041.52
 689  2032.765
 690  1948.021
 691  1942.257
 692  2057.783
 693  2087.082
 694  2036.332
 695  1953.22
 696  2007.557
 697  2157.054
 698  2210.2
 699  2164.072
 700  2096.243
 701  2035.537
 702  1994.557
 703  1959.864
 704  1904.634
 705  1826.131
 706  1752.408
 707  1746.903
 708  1718.856
 709  1689.805
 710  1788.282
 711  1852.817
 712  1853.457
 713  1835.672
 714  1856.11
 715  2008.457
 716  2046.744
 717  2050.298
 718  2094.386
 719  2180.43
 720  2194.214
 721  2135.196
 722  2200.218
 723  2162.27
 724  1980.641
 725  1840.399
 726  1768.73
 727  1853.708
 728  1873.751
 729  2017.977
 730  2062.715
 731  2029.917
 732  1952.859
 733  1811.244
 734  1881.783
 735  1864.081
 736  1981.005
 737  1950.82
 738  1935.035
 739  1817.793
 740  1838.169
 741  1840.086
 742  1800.635
 743  1865.963
 744  2063.203
 745  2202.291
 746  2182.524
 747  2113.741
 748  2016.316
 749  2022.356
 750  1908.156
 751  1902.303
 752  1871.923
 753  1911.933
 754  1970.236
 755  1972.01
 756  1901.017
 757  1901.137
 758  2039.867
 759  2185.85
 760  2238.446
 761  2205.252
 762  2034.604
 763  1885.279
 764  1822.748
 765  1935.085
 766  2083.053
 767  2041.639
 768  2045.553
 769  2055.285
 770  2080.384
 771  2111.836
 772  2228.76
 773  2234.793
 774  2153.671
 775  2110.542
 776  2100.896
 777  2140.995
 778  2072.813
 779  2096.201
 780  2064.502
 781  2135.457
 782  2112.712
 783  2193.124
 784  2086.173
 785  2084.642
 786  2067.792
 787  2198.606
 788  2171.084
 789  2213.248
 790  2344.884
 791  2457.651
 792  2343.398
 793  2265.986
 794  2315.572
 795  2351.891
 796  2216.275
 797  2163.282
 798  2326.571
 799  2302.472
 800  2189.512
 801  2100.582
 802  2242.098
 803  2520.348
 804  2655.592
 805  2647.298
 806  2521.875
 807  2378.053
 808  2355.786
 809  2416.511
 810  2415.683
 811  2380.705
 812  2299.658
 813  2170.264
 814  1994.266
 815  2067.51
 816  2248.638
 817  2356.002
 818  2414.697
 819  2359.139
 820  2326.03
 821  2264.43
 822  2284.572
 823  2226.892
 824  2284.46
 825  2177.532
 826  2150.533
 827  2010.144
 828  1910.26
 829  1926.669
 830  1889.707
 831  1980.851
 832  1968.837
 833  2010.276
 834  1948.014
 835  1981.168
 836  2124.701
 837  2139.367
 838  2149.113
 839  2075.111
 840  2026.035
 841  2116.302
 842  2255.831
 843  2238.105
 844  2170.658
 845  2090.323
 846  2118.744
 847  2110.717
 848  2175.467
 849  2184.417
 850  2194.659
 851  2266.481
 852  2347.104
 853  2346.34
 854  2201.83
 855  2253.524
 856  2211.198
 857  2278.596
 858  2174.793
 859  2177.391
 860  2067.339
 861  1981.752
 862  2069.396
 863  2102.392
 864  2270.831
 865  2251.084
 866  2322.745
 867  2232.51
 868  2259.467
 869  2297.12
 870  2338.03
 871  2385.855
 872  2271.567
 873  2105.693
 874  1869.483
 875  1814.583
 876  1840.784
 877  1912.313
 878  1995.559
 879  1999.649
 880  1912.224
 881  1947.029
 882  1904.448
 883  1868.11
 884  1785.894
 885  1641.412
 886  1574.795
 887  1584.102
 888  1747.739
 889  1888.569
 890  1873.39
 891  1805.139
 892  1808.617
 893  1954.275
 894  1856.4
 895  1763.55
 896  1761.251
 897  2052.885
 898  2044.992
 899  1966.282
 900  1910.693
 901  1906.337
 902  1918.446
 903  1830.955
 904  1956.04
 905  2008.682
 906  2030.966
 907  2108.436
 908  2077.472
 909  2169.716
 910  2119.909
 911  2080.908
 912  2030.262
 913  1986.427
 914  2039.039
 915  2011.739
 916  1941.036
 917  2020.626
 918  2098.719
 919  2144
 920  2141.609
 921  2147.01
 922  2137.716
 923  2104.296
 924  2260.455
 925  2236.24
 926  2208.938
 927  1931.939
 928  2052.155
 929  2131.181
 930  2227.59
 931  2306.847
 932  2200.428
 933  2221.27
 934  2132.728
 935  2204.798
 936  2189.153
 937  2258.999
 938  2382.587
 939  2428.15
 940  2256.443
 941  2057.18
 942  2097.218
 943  2279.542
 944  2334.951
 945  2319.686
 946  2186.84
 947  2081.06
 948  2058.664
 949  2119.131
 950  2129.46
 951  1924.003
 952  1944.303
 953  2125.52
 954  2299.969
 955  2197.19
 956  2086.416
 957  1982.873
 958  2050.965
 959  2028.673
 960  2092.831
 961  2090.895
 962  2107.414
 963  2046.875
 964  2004.354
 965  2006.834
 966  2181.846
 967  2165.074
 968  2223.051
 969  2277.145
 970  2413.607
 971  2388.866
 972  2286.85
 973  2105.24
 974  1992.189
 975  2005.25
 976  1946.436
 977  2026.96
 978  1850.773
 979  1871.838
 980  1896.538
 981  2112.715
 982  2059.265
 983  1896.806
 984  1874.215
 985  1901.843
 986  1929.311
 987  1919.333
 988  1919.755
 989  1940.137
 990  1915.186
 991  2025.342
 992  2036.22
 993  1975.099
 994  1877.431
 995  1845.018
 996  1932.123
 997  2010.709
 998  2094.835
 999  2264.839
1000  2306.841
1001  2275.372
1002  2054.522
1003  1984.741
1004  1836.203
1005  1900.228
1006  1881.058
1007  2006.814
1008  2024.006
1009  2088.109
1010  1997.546
1011  1924.956
1012  1898.021
1013  1884.981
1014  1930.741
1015  1959.324
1016  1977.841
1017  1887.138
1018  1851.668
1019  1847.998
1020  1838.325
1021  1817.088
1022  1824.442
1023  1937.618
