# Input file       =  1207924562.108558_cleaned.dat
# Candidate        =  PSR_0332+5434
# Telescope        =  AR
# Epoch_topo       =  58224.608577645347
# Epoch_bary       =  N/A
# T_sample         =  0.002
# Data Folded      =  7340032
# Data Avg         =  0.0399177882761166
# Data StdDev      =  1.00006206753368 
# Profile Bins     =  512
# Profile Avg      =  572.290554406633 
# Profile StdDev   =  119.740467911034 
# Reduced chi-sqr  =  1.404
# Prob(Noise)      <  3.88e-09   (~5.8 sigma)
# P_topo (ms)      =  714.559259410241  +/- 0.000288
# P'_topo (s/s)    =  -0                +/- 1.52e-10
# P''_topo (s/s^2) =  0                 +/- 6.71e-14
# P_bary (ms)      =  N/A
# P'_bary (s/s)    =  N/A
# P''_bary (s/s^2) =  N/A
# P_orb (s)        =  N/A
# asin(i)/c (s)    =  N/A
# eccentricity     =  N/A
# w (rad)          =  N/A
# T_peri           =  N/A
######################################################
   0  1272.114
   1  1232.536
   2  1009.434
   3  888.7511
   4  816.5053
   5  703.7575
   6  601.5865
   7  680.4619
   8  639.1339
   9  555.2745
  10  569.4277
  11  675.2565
  12  725.7816
  13  520.54
  14  568.7452
  15  612.1232
  16  701.6686
  17  727.8668
  18  608.1701
  19  592.9669
  20  665.9269
  21  530.3145
  22  541.5168
  23  606.4688
  24  688.0126
  25  698.017
  26  658.9407
  27  702.1495
  28  668.6057
  29  687.4484
  30  635.8167
  31  568.4597
  32  540.8412
  33  511.8598
  34  496.1204
  35  437.3138
  36  511.2518
  37  676.5623
  38  572.6017
  39  535.2324
  40  513.7855
  41  476.5016
  42  496.2449
  43  506.2366
  44  592.2303
  45  562.0201
  46  537.2498
  47  689.7623
  48  623.5948
  49  527.2247
  50  461.885
  51  396.7187
  52  397.6172
  53  458.8284
  54  490.6566
  55  482.5815
  56  563.2294
  57  584.5559
  58  650.5874
  59  657.8438
  60  588.3868
  61  492.5727
  62  535.3247
  63  543.778
  64  478.706
  65  432.641
  66  496.2506
  67  484.406
  68  433.3189
  69  433.9531
  70  593.7814
  71  649.2031
  72  569.6752
  73  525.6093
  74  429.7059
  75  475.076
  76  478.766
  77  578.2205
  78  695.9984
  79  632.2803
  80  527.4719
  81  580.2159
  82  568.2977
  83  561.6887
  84  644.302
  85  671.3945
  86  593.7809
  87  573.9479
  88  538.2696
  89  579.034
  90  520.8127
  91  553.6104
  92  609.0524
  93  664.2782
  94  668.004
  95  611.8847
  96  576.7659
  97  661.5548
  98  592.2972
  99  580.0429
 100  764.059
 101  730.4171
 102  684.9192
 103  687.2783
 104  692.1356
 105  516.0827
 106  650.6335
 107  759.407
 108  701.5497
 109  688.4141
 110  654.8425
 111  603.9352
 112  469.1339
 113  477.7811
 114  548.7994
 115  543.5135
 116  581.4412
 117  575.3554
 118  545.6738
 119  674.582
 120  686.3293
 121  637.8613
 122  632.4052
 123  616.1257
 124  705.8119
 125  646.8425
 126  653.1823
 127  661.6328
 128  574.3777
 129  545.2209
 130  652.2842
 131  729.8941
 132  649.2395
 133  647.853
 134  654.1585
 135  476.5913
 136  429.7045
 137  551.2478
 138  545.4296
 139  502.4753
 140  433.0867
 141  360.6741
 142  440.3566
 143  599.3577
 144  595.1265
 145  551.4937
 146  442.586
 147  622.8895
 148  542.4583
 149  492.1398
 150  560.2222
 151  653.0023
 152  596.6097
 153  631.6646
 154  597.2852
 155  540.6041
 156  482.9812
 157  558.5887
 158  577.1987
 159  623.7169
 160  680.0371
 161  653.0684
 162  552.7094
 163  646.4216
 164  666.774
 165  613.3582
 166  601.376
 167  642.9004
 168  566.7789
 169  477.4784
 170  661.3296
 171  635.9803
 172  550.214
 173  557.205
 174  432.1577
 175  558.6167
 176  481.1272
 177  512.4446
 178  576.53
 179  566.2457
 180  497.1932
 181  579.8007
 182  641.9868
 183  715.2322
 184  635.8806
 185  515.412
 186  526.5585
 187  449.2993
 188  464.4654
 189  524.6801
 190  431.8877
 191  430.5545
 192  490.6004
 193  519.6382
 194  547.8507
 195  458.8596
 196  491.3923
 197  594.2121
 198  706.2766
 199  657.2256
 200  528.3538
 201  489.6121
 202  587.9731
 203  592.5226
 204  508.8808
 205  527.9643
 206  568.4082
 207  521.4985
 208  493.1816
 209  513.6172
 210  609.3435
 211  536.2937
 212  582.9778
 213  598.0153
 214  553.7783
 215  533.3174
 216  514.765
 217  626.614
 218  527.6318
 219  480.3191
 220  529.7162
 221  622.4342
 222  525.6266
 223  508.7589
 224  575.1357
 225  547.5786
 226  569.5045
 227  547.8464
 228  543.7452
 229  523.5824
 230  550.6497
 231  656.5247
 232  645.5469
 233  651.607
 234  606.3038
 235  499.4072
 236  556.6036
 237  543.4617
 238  623.2233
 239  555.4445
 240  502.2255
 241  580.4038
 242  586.6505
 243  592.2802
 244  516.6888
 245  497.9751
 246  543.5843
 247  507.5936
 248  510.2095
 249  563.6141
 250  671.0079
 251  743.6952
 252  672.8102
 253  577.3962
 254  633.7404
 255  615.1257
 256  641.4214
 257  598.1088
 258  615.7763
 259  616.7236
 260  504.4801
 261  629.7679
 262  664.1914
 263  696.4819
 264  703.9047
 265  590.4778
 266  642.3376
 267  653.6244
 268  618.5214
 269  569.4441
 270  621.6692
 271  607.5793
 272  455.715
 273  515.3931
 274  555.4628
 275  568.079
 276  535.5066
 277  561.6965
 278  599.6124
 279  572.1232
 280  606.9432
 281  652.7299
 282  612.3287
 283  576.4067
 284  558.1995
 285  603.6788
 286  594.0391
 287  528.0993
 288  551.1002
 289  719.6816
 290  694.3568
 291  707.3856
 292  655.2488
 293  698.0499
 294  608.4528
 295  731.7105
 296  761.188
 297  555.3152
 298  582.7359
 299  584.0502
 300  582.378
 301  610.5115
 302  656.731
 303  601.1125
 304  663.316
 305  645.5696
 306  458.6213
 307  453.6463
 308  453.8335
 309  516.3902
 310  621.9526
 311  613.4183
 312  664.5909
 313  734.1437
 314  665.814
 315  671.826
 316  627.0208
 317  689.2042
 318  657.4066
 319  613.0676
 320  521.4614
 321  458.2892
 322  469.9379
 323  612.8759
 324  627.89
 325  491.7486
 326  498.8716
 327  648.9936
 328  609.0706
 329  612.1501
 330  651.4385
 331  561.9351
 332  575.9604
 333  578.9818
 334  682.3572
 335  611.4813
 336  537.2057
 337  532.2975
 338  524.9577
 339  597.2257
 340  519.3459
 341  556.7584
 342  572.2133
 343  554.2103
 344  527.0262
 345  568.9819
 346  641.6404
 347  636.3555
 348  701.7537
 349  600.5882
 350  591.5932
 351  578.7426
 352  487.5168
 353  477.0115
 354  581.5008
 355  493.9107
 356  513.7693
 357  574.9465
 358  522.3762
 359  549.0227
 360  539.6625
 361  679.1279
 362  642.1577
 363  575.5959
 364  536.6094
 365  515.2281
 366  541.2499
 367  497.1497
 368  440.9485
 369  559.8542
 370  586.8672
 371  532.4724
 372  629.9102
 373  615.9069
 374  520.0551
 375  527.2471
 376  647.2499
 377  690.3652
 378  607.6986
 379  590.163
 380  579.1523
 381  579.1394
 382  605.5849
 383  494.6325
 384  486.9943
 385  518.3944
 386  489.1345
 387  465.2331
 388  477.5883
 389  499.752
 390  481.1194
 391  538.7896
 392  430.8204
 393  440.5757
 394  520.0898
 395  546.6559
 396  440.8939
 397  478.4819
 398  456.5022
 399  462.6032
 400  505.5871
 401  513.3375
 402  425.9224
 403  396.7595
 404  395.171
 405  477.0061
 406  568.0885
 407  498.7656
 408  462.28
 409  498.289
 410  508.7273
 411  478.234
 412  595.8488
 413  684.8405
 414  523.954
 415  410.0536
 416  461.973
 417  479.3021
 418  442.8888
 419  490.4017
 420  428.9997
 421  360.5287
 422  449.5656
 423  460.0579
 424  598.7081
 425  519.462
 426  599.0849
 427  594.2542
 428  469.6698
 429  537.9817
 430  598.6412
 431  544.1678
 432  560.1263
 433  516.7228
 434  582.3978
 435  498.6969
 436  431.2549
 437  565.7012
 438  605.0167
 439  562.4496
 440  467.7561
 441  484.8255
 442  524.5375
 443  482.6035
 444  443.4926
 445  514.6194
 446  501.4948
 447  471.0428
 448  456.9058
 449  416.8356
 450  394.8319
 451  452.3183
 452  442.8572
 453  479.6199
 454  548.5701
 455  590.5764
 456  596.1873
 457  497.4463
 458  537.5823
 459  431.9474
 460  413.1703
 461  497.0691
 462  580.3271
 463  598.2867
 464  482.6007
 465  549.7919
 466  563.6552
 467  482.1701
 468  518.4938
 469  489.3759
 470  471.1134
 471  602.0514
 472  581.7847
 473  557.0552
 474  601.7636
 475  561.3351
 476  579.5781
 477  617.0307
 478  620.007
 479  583.819
 480  551.2646
 481  596.39
 482  541.3201
 483  444.7332
 484  493.4448
 485  448.9368
 486  478.77
 487  435.3364
 488  351.54
 489  444.85
 490  608.8027
 491  565.8129
 492  502.6344
 493  490.28
 494  538.4503
 495  557.9971
 496  585.1693
 497  579.1962
 498  490.0239
 499  495.5508
 500  594.2257
 501  643.1928
 502  534.492
 503  478.0509
 504  525.2258
 505  613.6508
 506  735.5615
 507  787.147
 508  850.202
 509  1004.399
 510  1084.842
 511  1246.946
