# Input file       =  1207673922.110527_cleaned.dat
# Candidate        =  PSR_0332+5434
# Telescope        =  AR
# Epoch_topo       =  58221.707651742210
# Epoch_bary       =  N/A
# T_sample         =  0.002
# Data Folded      =  7340032
# Data Avg         =  0.0200718597739719
# Data StdDev      =  2.37224875250234 
# Profile Bins     =  1024
# Profile Avg      =  143.846125221171 
# Profile StdDev   =  200.844167907341 
# Reduced chi-sqr  =  2.172
# Prob(Noise)      <  1.41e-90   (~20.1 sigma)
# P_topo (ms)      =  714.561675660321  +/- 0.000228
# P'_topo (s/s)    =  -0                +/- 1.21e-10
# P''_topo (s/s^2) =  0                 +/- 5.32e-14
# P_bary (ms)      =  N/A
# P'_bary (s/s)    =  N/A
# P''_bary (s/s^2) =  N/A
# P_orb (s)        =  N/A
# asin(i)/c (s)    =  N/A
# eccentricity     =  N/A
# w (rad)          =  N/A
# T_peri           =  N/A
######################################################
   0  78.5385
   1  243.4995
   2  260.6485
   3  140.3915
   4  16.47882
   5  -11.18774
   6  58.80604
   7  124.8377
   8  69.64936
   9  -3.50532
  10  -32.76358
  11  74.84486
  12  133.587
  13  190.2811
  14  52.7765
  15  -19.74576
  16  3.813582
  17  98.72238
  18  104.6227
  19  62.01474
  20  90.15174
  21  86.01952
  22  84.76537
  23  59.38883
  24  64.05782
  25  176.487
  26  203.683
  27  162.9984
  28  115.9992
  29  96.84512
  30  9.261586
  31  -78.05325
  32  -1.725221
  33  76.90501
  34  57.96693
  35  96.48877
  36  174.7362
  37  275.5003
  38  346.6884
  39  317.0555
  40  279.3849
  41  198.9289
  42  231.0404
  43  273.167
  44  194.5876
  45  27.21219
  46  -56.22851
  47  20.89117
  48  157.9321
  49  295.7567
  50  341.3152
  51  322.8469
  52  213.5729
  53  211.9279
  54  153.3221
  55  194.2044
  56  198.0054
  57  209.9685
  58  192.385
  59  218.7167
  60  254.5558
  61  254.5006
  62  281.8652
  63  287.1226
  64  205.2573
  65  217.8772
  66  250.6561
  67  281.7279
  68  177.1316
  69  136.2221
  70  112.7555
  71  66.78018
  72  86.67313
  73  105.9478
  74  130.2807
  75  219.4521
  76  238.4965
  77  209.7611
  78  148.0136
  79  84.12914
  80  124.6635
  81  145.7743
  82  253.0978
  83  243.1337
  84  126.2126
  85  88.74184
  86  113.0657
  87  156.6461
  88  89.53466
  89  34.47619
  90  75.91879
  91  41.3079
  92  93.21136
  93  53.46856
  94  73.22308
  95  -82.10379
  96  -208.5729
  97  -292.307
  98  -171.1432
  99  -117.1847
 100  23.165
 101  78.3751
 102  115.2676
 103  182.5997
 104  225.8143
 105  343.0269
 106  308.2711
 107  238.036
 108  218.99
 109  192.2451
 110  126.6354
 111  49.404
 112  22.54555
 113  138.9208
 114  231.2773
 115  185.8548
 116  208.4377
 117  128.2913
 118  -35.78377
 119  -170.8376
 120  -83.90831
 121  133.4934
 122  90.31279
 123  85.09108
 124  53.86384
 125  123.765
 126  37.16164
 127  -37.8694
 128  83.54327
 129  96.48469
 130  23.2973
 131  6.067066
 132  148.1666
 133  224.2924
 134  202.9398
 135  206.0399
 136  144.7336
 137  110.4644
 138  86.63806
 139  155.9049
 140  158.2212
 141  186.0734
 142  217.5235
 143  185.1075
 144  195.2901
 145  208.4551
 146  247.729
 147  205.8996
 148  233.1922
 149  255.7754
 150  262.5478
 151  228.9503
 152  188.8906
 153  157.3592
 154  144.9943
 155  112.4692
 156  141.8714
 157  97.67704
 158  189.54
 159  159.0892
 160  163.1673
 161  56.04384
 162  92.98138
 163  171.6322
 164  293.2304
 165  318.4458
 166  265.5595
 167  142.4417
 168  87.55907
 169  41.52584
 170  121.449
 171  190.1145
 172  197.6172
 173  247.5985
 174  264.7097
 175  148.4216
 176  46.85828
 177  -35.7353
 178  30.12513
 179  28.59589
 180  112.5135
 181  141.5256
 182  173.8446
 183  174.4366
 184  273.7265
 185  221.6986
 186  241.9041
 187  189.3832
 188  168.1224
 189  96.09656
 190  79.82143
 191  138.7717
 192  123.7034
 193  50.91232
 194  36.90314
 195  5.819251
 196  46.28933
 197  103.1781
 198  242.7656
 199  178.8375
 200  104.9565
 201  50.47851
 202  128.0182
 203  153.8569
 204  113.2329
 205  146.1248
 206  119.1001
 207  38.31574
 208  -42.8788
 209  -51.51566
 210  30.92544
 211  84.44399
 212  133.0421
 213  132.2629
 214  173.0156
 215  157.8962
 216  196.4044
 217  93.37423
 218  168.3901
 219  105.7433
 220  70.35297
 221  34.20398
 222  146.5184
 223  341.6069
 224  322.4038
 225  205.6829
 226  103.3391
 227  59.00642
 228  64.66346
 229  116.945
 230  191.9112
 231  246.1614
 232  102.2271
 233  -8.133374
 234  -127.8594
 235  -82.43015
 236  43.81494
 237  78.76001
 238  61.04189
 239  12.7114
 240  -8.433394
 241  -24.84002
 242  -33.25526
 243  80.46223
 244  249.8819
 245  172.9957
 246  92.58403
 247  7.716211
 248  122.1709
 249  161.8896
 250  120.8248
 251  25.93767
 252  46.73129
 253  50.52797
 254  2.012701
 255  -24.31202
 256  -33.38665
 257  66.91435
 258  110.1992
 259  294.9069
 260  252.0858
 261  166.5278
 262  -6.256495
 263  11.95112
 264  82.9938
 265  162.0862
 266  77.30843
 267  35.87777
 268  -19.91055
 269  50.60458
 270  105.3075
 271  175.5274
 272  163.4016
 273  172.4913
 274  112.6212
 275  166.9698
 276  143.7385
 277  203.1777
 278  140.3325
 279  168.1833
 280  155.1196
 281  43.19195
 282  20.2261
 283  18.08729
 284  244.5084
 285  268.1566
 286  169.1185
 287  -20.86882
 288  43.05827
 289  91.89766
 290  220.121
 291  310.0712
 292  378.3493
 293  260.3378
 294  226.426
 295  329.8694
 296  371.418
 297  278.4552
 298  200.7365
 299  201
 300  224.0413
 301  133.5055
 302  113.9666
 303  85.55662
 304  67.73391
 305  31.30201
 306  133.9399
 307  181.27
 308  148.3313
 309  100.5352
 310  169.5224
 311  135.9682
 312  140.2524
 313  105.0198
 314  187.284
 315  125.7827
 316  68.65265
 317  56.42141
 318  212.1877
 319  307.9868
 320  268.1054
 321  229.3236
 322  220.893
 323  217.7556
 324  132.6247
 325  102.1674
 326  58.82668
 327  78.87568
 328  95.78519
 329  255.7406
 330  292.3082
 331  312.9671
 332  258.9698
 333  265.5772
 334  236.1635
 335  220.8672
 336  154.7524
 337  107.2564
 338  132.0849
 339  255.8997
 340  362.1053
 341  274.3084
 342  136.4604
 343  163.118
 344  294.0068
 345  279.6681
 346  196.6786
 347  213.1655
 348  203.1749
 349  165.2492
 350  69.7373
 351  111.2503
 352  104.92
 353  147.2514
 354  173.4808
 355  249.3933
 356  242.8373
 357  153.9966
 358  67.50026
 359  60.50811
 360  59.2527
 361  201.1391
 362  227.6124
 363  189.5343
 364  -15.23677
 365  0.5413663
 366  113.8237
 367  306.2601
 368  274.4972
 369  203.3069
 370  73.48425
 371  97.20845
 372  15.65753
 373  20.43552
 374  141.7347
 375  176.1643
 376  199.0242
 377  181.4658
 378  182.4619
 379  132.7425
 380  1.391772
 381  -67.94382
 382  -146.9568
 383  -166.8178
 384  -87.04726
 385  21.92267
 386  116.7444
 387  129.16
 388  67.81731
 389  97.61247
 390  186.9432
 391  271.5151
 392  224.2015
 393  28.9555
 394  -181.674
 395  -154.5834
 396  36.83512
 397  254.9014
 398  271.167
 399  187.0958
 400  220.8373
 401  94.66689
 402  87.16557
 403  83.38763
 404  172.1252
 405  100.8904
 406  93.9651
 407  199.9275
 408  236.0771
 409  180.8179
 410  92.54398
 411  120.2676
 412  151.9383
 413  145.3608
 414  11.05488
 415  40.24669
 416  85.01202
 417  181.2265
 418  175.3894
 419  140.5315
 420  80.33805
 421  54.95891
 422  12.26789
 423  76.29503
 424  149.318
 425  147.848
 426  78.78181
 427  4.924881
 428  132.5091
 429  224.1152
 430  219.1612
 431  222.2576
 432  196.5386
 433  196.6128
 434  118.3227
 435  118.5736
 436  40.84131
 437  88.92521
 438  131.5334
 439  109.3173
 440  147.6912
 441  116.1828
 442  156.3398
 443  81.0775
 444  54.10973
 445  87.84248
 446  60.73905
 447  133.1158
 448  131.5795
 449  165.9259
 450  161.7899
 451  72.47068
 452  72.46321
 453  44.64397
 454  145.9451
 455  162.9642
 456  150.8742
 457  152.888
 458  93.17924
 459  113.6662
 460  189.4864
 461  324.4763
 462  358.9458
 463  300.9581
 464  236.0226
 465  214.2722
 466  191.4137
 467  193.1909
 468  117.3386
 469  -6.201777
 470  -96.95029
 471  -40.26028
 472  61.55106
 473  150.1235
 474  112.9238
 475  110.4846
 476  143.414
 477  219.9548
 478  280.7679
 479  244.4518
 480  234.745
 481  219.6379
 482  179.7943
 483  165.5246
 484  160.331
 485  104.101
 486  -32.52432
 487  -115.5201
 488  12.97335
 489  132.3388
 490  111.077
 491  75.16022
 492  109.9717
 493  139.9306
 494  167.2801
 495  94.7862
 496  99.99461
 497  46.32039
 498  128.1148
 499  116.4704
 500  136.2962
 501  118.2359
 502  166.1681
 503  87.97292
 504  84.07059
 505  6.834153
 506  27.51209
 507  -11.26874
 508  45.02188
 509  128.732
 510  150.2017
 511  231.015
 512  198.4268
 513  73.56768
 514  10.98061
 515  33.01763
 516  208.676
 517  200.0609
 518  174.9028
 519  138.8306
 520  78.75039
 521  42.69469
 522  -20.48533
 523  -29.66877
 524  41.35301
 525  118.3867
 526  87.38995
 527  25.29916
 528  45.78028
 529  155.8545
 530  186.0064
 531  197.2471
 532  220.3862
 533  189.5099
 534  101.056
 535  37.80596
 536  -20.42226
 537  47.83276
 538  28.42536
 539  60.83443
 540  19.78961
 541  -87.26384
 542  -140.389
 543  -174.7576
 544  -196.6397
 545  -216.0895
 546  -182.5179
 547  -151.2545
 548  -59.761
 549  48.03641
 550  28.16344
 551  44.23676
 552  43.47945
 553  119.315
 554  13.48413
 555  34.55962
 556  54.61922
 557  27.37417
 558  -20.79359
 559  -57.15822
 560  40.05946
 561  196.0796
 562  270.631
 563  227.2946
 564  196.7143
 565  231.8584
 566  239.5978
 567  299.763
 568  242.614
 569  205.5182
 570  38.58854
 571  -45.46894
 572  -5.73485
 573  -1.186744
 574  97.25874
 575  76.87551
 576  171.8077
 577  189.4785
 578  200.6953
 579  136.6737
 580  108.5504
 581  106.6154
 582  117.5272
 583  23.00611
 584  79.7007
 585  219.7368
 586  316.9372
 587  275.6064
 588  281.0843
 589  345.9539
 590  394.1266
 591  334.8781
 592  247.2625
 593  324.8615
 594  490.6464
 595  602.5432
 596  582.5867
 597  570.4102
 598  621.4648
 599  782.9062
 600  1106.607
 601  1345.319
 602  1496.914
 603  1530.405
 604  1575.38
 605  1469.533
 606  1341.864
 607  1184.366
 608  1105.708
 609  951.583
 610  784.2476
 611  514.0408
 612  402.0858
 613  253.6659
 614  202.2629
 615  81.53918
 616  85.24728
 617  151.1957
 618  126.878
 619  70.39423
 620  -54.15409
 621  53.97726
 622  199.2868
 623  234.8687
 624  136.8287
 625  44.2085
 626  134.1252
 627  248.4363
 628  285.3495
 629  329.6643
 630  256.2463
 631  179.1784
 632  56.86134
 633  49.57391
 634  148.3131
 635  194.1277
 636  207.1047
 637  186.1762
 638  228.3377
 639  242.0446
 640  179.983
 641  239.4534
 642  159.5285
 643  167.0479
 644  101.8345
 645  170.0154
 646  186.3928
 647  184.5352
 648  199.592
 649  213.971
 650  247.9901
 651  183.3652
 652  257.1612
 653  321.1442
 654  346.7437
 655  197.7162
 656  149.8644
 657  192.9346
 658  283.7301
 659  266.0872
 660  230.5763
 661  241.2124
 662  286.6074
 663  196.5384
 664  167.1985
 665  183.3132
 666  380.3258
 667  334.2319
 668  246.5033
 669  97.89596
 670  153.2438
 671  230.6896
 672  325.3994
 673  251.1408
 674  243.9425
 675  134.6231
 676  241.4162
 677  294.7022
 678  267.1064
 679  202.4328
 680  79.27557
 681  145.2673
 682  177.0133
 683  177.0879
 684  236.2132
 685  256.7224
 686  301.8376
 687  295.3385
 688  288.2127
 689  297.4088
 690  270.409
 691  182.771
 692  55.34061
 693  -98.74686
 694  -122.4992
 695  -72.63902
 696  4.849632
 697  81.81446
 698  109.3317
 699  115.165
 700  144.0327
 701  162.9566
 702  242.281
 703  223.4173
 704  223.2644
 705  144.2471
 706  256.2231
 707  163.1102
 708  217.0654
 709  178.8672
 710  252.9916
 711  80.69317
 712  81.98627
 713  96.39798
 714  161.9069
 715  129.3477
 716  152.4316
 717  152.1227
 718  193.5925
 719  103.0559
 720  83.53118
 721  45.22705
 722  112.5679
 723  69.49721
 724  66.35283
 725  46.52472
 726  85.16613
 727  -38.97365
 728  -80.79565
 729  14.31872
 730  187.1116
 731  252.9212
 732  182.2353
 733  162.2031
 734  94.6356
 735  46.45745
 736  -44.11063
 737  41.33799
 738  203.4423
 739  393.0564
 740  248.0586
 741  172.2981
 742  50.84094
 743  109.9253
 744  129.0906
 745  93.8451
 746  82.03485
 747  107.6375
 748  271.2292
 749  256.8981
 750  200.0792
 751  91.15254
 752  184.2614
 753  237.6201
 754  255.1046
 755  184.4
 756  191.9448
 757  164.4262
 758  134.1707
 759  107.5052
 760  215.8475
 761  205.5027
 762  123.7153
 763  75.59846
 764  97.02364
 765  229.5083
 766  272.7203
 767  380.8681
 768  310.8019
 769  172.801
 770  113.2488
 771  111.8349
 772  206.5277
 773  165.4006
 774  56.62658
 775  79.72183
 776  160.1044
 777  180.384
 778  110.9229
 779  148.3467
 780  289.2924
 781  268.2579
 782  239.5201
 783  273.0974
 784  284.7033
 785  157.4185
 786  13.98118
 787  -20.61726
 788  -92.969
 789  -67.63612
 790  -11.78465
 791  147.133
 792  137.1415
 793  -12.33
 794  -84.70786
 795  -20.28946
 796  142.849
 797  108.4756
 798  64.13639
 799  99.79549
 800  213.5309
 801  227.4102
 802  170.3872
 803  95.45048
 804  225.8761
 805  331.5165
 806  260.6084
 807  185.2293
 808  40.79317
 809  152.6681
 810  148.6674
 811  99.8977
 812  -6.385445
 813  -25.95889
 814  148.2509
 815  147.807
 816  171.5127
 817  132.6443
 818  184.3942
 819  25.93179
 820  -48.88974
 821  -147.3432
 822  -101.4839
 823  -88.8242
 824  -28.21014
 825  55.5645
 826  87.04247
 827  44.22117
 828  49.50905
 829  33.83783
 830  112.4437
 831  130.4573
 832  185.5083
 833  168.0533
 834  118.1786
 835  31.74317
 836  -20.33093
 837  -11.94814
 838  98.22329
 839  51.71259
 840  13.15413
 841  -46.66491
 842  33.23557
 843  68.32707
 844  41.41722
 845  -14.67945
 846  27.57351
 847  52.65453
 848  69.57011
 849  60.16339
 850  140.6881
 851  207.9097
 852  213.1472
 853  139.1158
 854  56.67639
 855  -84.92793
 856  -27.39436
 857  61.05602
 858  148.0123
 859  133.346
 860  99.54704
 861  151.4201
 862  105.9186
 863  110.5356
 864  55.21227
 865  72.97363
 866  79.37369
 867  149.4326
 868  196.4593
 869  79.19485
 870  33.67546
 871  -69.84084
 872  -91.44086
 873  -180.3251
 874  -57.67212
 875  91.34135
 876  173.6193
 877  149.5472
 878  234.4609
 879  240.4753
 880  67.18787
 881  -133.8042
 882  -103.6081
 883  5.396812
 884  28.00167
 885  109.5583
 886  184.096
 887  165.9574
 888  184.0813
 889  172.776
 890  200.9674
 891  222.9464
 892  300.9334
 893  275.3938
 894  180.9627
 895  207.2468
 896  285.7968
 897  360.0393
 898  343.1713
 899  348.4526
 900  223.6572
 901  182.5999
 902  69.54134
 903  16.70181
 904  -3.637378
 905  90.91425
 906  309.3632
 907  358.5623
 908  351.6765
 909  291.8602
 910  336.2099
 911  307.8765
 912  182.9025
 913  123.641
 914  139.1939
 915  139.7436
 916  106.8521
 917  45.46541
 918  22.2285
 919  40.27489
 920  56.63655
 921  118.796
 922  214.2529
 923  169.7031
 924  90.5197
 925  -25.27544
 926  2.962751
 927  136.2721
 928  152.2235
 929  142.7341
 930  196.4878
 931  270.1891
 932  254.7288
 933  137.5646
 934  97.2701
 935  140.031
 936  88.47924
 937  71.84956
 938  35.92775
 939  78.93779
 940  146.839
 941  88.97778
 942  215.5613
 943  235.7211
 944  286.7635
 945  149.1942
 946  68.24539
 947  -6.307124
 948  60.41883
 949  56.2976
 950  160.1602
 951  94.99828
 952  70.10433
 953  60.07286
 954  118.2367
 955  203.5428
 956  221.6768
 957  340.3284
 958  364.0345
 959  244.2441
 960  151.9664
 961  173.616
 962  175.2277
 963  205.1301
 964  250.7336
 965  380.8004
 966  314.7365
 967  181.3353
 968  133.0596
 969  157.6565
 970  134.2303
 971  38.90091
 972  21.36262
 973  116.9137
 974  126.0125
 975  -21.26157
 976  -122.0713
 977  17.58647
 978  115.0419
 979  171.0456
 980  75.11288
 981  80.46204
 982  95.46026
 983  159.08
 984  176.7767
 985  166.7971
 986  208.3064
 987  211.4971
 988  138.4143
 989  110.3762
 990  153.4686
 991  97.01254
 992  48.00523
 993  46.87522
 994  172.5663
 995  241.4491
 996  169.0953
 997  105.5559
 998  24.09539
 999  120.1832
1000  71.82497
1001  52.51968
1002  -15.44909
1003  -16.89186
1004  20.12684
1005  26.87584
1006  38.02948
1007  -2.870426
1008  37.97744
1009  -6.990118
1010  55.29173
1011  -50.70257
1012  17.68938
1013  30.759
1014  176.5342
1015  142.4247
1016  -46.00744
1017  -96.54478
1018  -30.14801
1019  82.33444
1020  16.61551
1021  -51.3529
1022  -156.1413
1023  -89.90026
