# Input file       =  1207823475.107672_cleaned.dat
# Candidate        =  PSR_0332+5434
# Telescope        =  AR
# Epoch_topo       =  58223.438589209167
# Epoch_bary       =  N/A
# T_sample         =  0.002
# Data Folded      =  7340032
# Data Avg         =  0.0534288824884277
# Data StdDev      =  0.999967982874081
# Profile Bins     =  512
# Profile Avg      =  765.949623939556 
# Profile StdDev   =  119.729202869064 
# Reduced chi-sqr  =  2.167
# Prob(Noise)      <  4.42e-46   (~14.2 sigma)
# P_topo (ms)      =  714.559832864403  +/- 0.000461
# P'_topo (s/s)    =  -0                +/- 2.43e-10
# P''_topo (s/s^2) =  0                 +/- 1.07e-13
# P_bary (ms)      =  N/A
# P'_bary (s/s)    =  N/A
# P''_bary (s/s^2) =  N/A
# P_orb (s)        =  N/A
# asin(i)/c (s)    =  N/A
# eccentricity     =  N/A
# w (rad)          =  N/A
# T_peri           =  N/A
######################################################
   0  719.4255
   1  670.239
   2  759.7226
   3  739.1372
   4  776.0861
   5  743.2304
   6  666.9808
   7  571.2446
   8  670.6183
   9  721.4884
  10  683.6302
  11  618.6686
  12  715.8789
  13  726.9314
  14  772.4082
  15  705.5493
  16  744.6318
  17  744.4647
  18  782.727
  19  823.6519
  20  707.1081
  21  673.8654
  22  729.9685
  23  764.8421
  24  725.9583
  25  773.386
  26  825.2872
  27  742.0276
  28  740.0123
  29  748.7953
  30  753.476
  31  689.4973
  32  712.8466
  33  744.2628
  34  739.364
  35  811.7771
  36  746.1956
  37  670.0897
  38  754.697
  39  836.8694
  40  822.5229
  41  799.751
  42  813.2665
  43  825.8022
  44  719.694
  45  688.2451
  46  745.0168
  47  744.1877
  48  711.7475
  49  701.7719
  50  762.3979
  51  771.8282
  52  809.8849
  53  775.1147
  54  703.3945
  55  721.7726
  56  861.2274
  57  863.6708
  58  784.9665
  59  835.5905
  60  835.1071
  61  844.9819
  62  816.3973
  63  794.7923
  64  761.8892
  65  725.538
  66  738.7517
  67  730.4944
  68  742.0928
  69  762.9883
  70  687.5827
  71  665.4858
  72  640.5279
  73  702.6499
  74  707.6787
  75  681.416
  76  683.5607
  77  723.7838
  78  772.5842
  79  871.7782
  80  789.9579
  81  792.9338
  82  773.1903
  83  654.7115
  84  703.9271
  85  729.5745
  86  780.6622
  87  798.79
  88  830.9243
  89  748.3345
  90  809.5657
  91  888.9731
  92  875.3911
  93  786.7642
  94  921.7181
  95  1080.616
  96  1309.865
  97  1528.387
  98  1534.532
  99  1528.283
 100  1473.141
 101  1137.494
 102  933.8009
 103  780.3978
 104  733.2501
 105  764.7117
 106  757.6617
 107  712.2202
 108  784.796
 109  705.6427
 110  732.0074
 111  799.9009
 112  875.4088
 113  822.5893
 114  786.5121
 115  819.9031
 116  774.3721
 117  760.5817
 118  704.9348
 119  720.3516
 120  710.5292
 121  736.0112
 122  662.1516
 123  693.2267
 124  624.0557
 125  640.3509
 126  657.5235
 127  701.9344
 128  687.1656
 129  709.4933
 130  680.1006
 131  644.9624
 132  611.0467
 133  563.8838
 134  630.4337
 135  647.2963
 136  666.0013
 137  658.0486
 138  684.5513
 139  578.4302
 140  548.9032
 141  553.9131
 142  602.698
 143  631.5071
 144  654.6009
 145  678.2999
 146  664.5202
 147  608.5087
 148  595.0745
 149  560.2706
 150  598.6926
 151  595.798
 152  610.8853
 153  655.7007
 154  563.0682
 155  518.9821
 156  523.7343
 157  488.7603
 158  512.4977
 159  569.4688
 160  613.1385
 161  582.7511
 162  502.5298
 163  460.9488
 164  549.0054
 165  613.2328
 166  553.6815
 167  645.1656
 168  631.019
 169  594.7963
 170  622.9036
 171  636.2177
 172  524.1746
 173  463.7714
 174  638.4512
 175  738.7239
 176  651.6724
 177  578.7777
 178  606.4321
 179  583.8527
 180  532.515
 181  471.3362
 182  463.5901
 183  520.0787
 184  544.2937
 185  561.1225
 186  610.432
 187  559.4528
 188  631.4772
 189  732.8901
 190  769.7052
 191  789.6804
 192  743.7487
 193  664.7813
 194  678.7845
 195  722.5958
 196  685.1738
 197  751.9174
 198  763.5652
 199  709.563
 200  648.9363
 201  711.3872
 202  787.2706
 203  667.723
 204  671.0854
 205  628.7477
 206  547.7258
 207  578.8142
 208  731.5714
 209  689.3273
 210  639.882
 211  596.7061
 212  645.01
 213  696.1286
 214  764.926
 215  716.4405
 216  719.9243
 217  702.0905
 218  653.518
 219  612.7716
 220  616.8107
 221  652.3943
 222  586.1451
 223  588.6009
 224  574.5618
 225  663.955
 226  651.2003
 227  617.1864
 228  599.2061
 229  612.7602
 230  602.8692
 231  598.7363
 232  614.6649
 233  688.1446
 234  604.9462
 235  564.4039
 236  678.2148
 237  655.8529
 238  570.9092
 239  570.8452
 240  561.3095
 241  654.8542
 242  707.9072
 243  711.7068
 244  673.9028
 245  715.1655
 246  641.4909
 247  582.0843
 248  633.2906
 249  694.7965
 250  689.7151
 251  780.5898
 252  748.1908
 253  656.1312
 254  680.7507
 255  748.4019
 256  776.6385
 257  798.61
 258  827.5621
 259  807.1651
 260  713.6783
 261  762.7261
 262  866.9818
 263  919.7157
 264  934.0604
 265  867.2822
 266  897.7476
 267  933.3362
 268  942.2803
 269  912.1151
 270  925.1434
 271  861.2736
 272  835.5189
 273  932.6612
 274  874.5634
 275  815.5065
 276  903.8837
 277  852.3226
 278  942.2266
 279  956.9069
 280  955.5377
 281  890.863
 282  823.457
 283  825.2744
 284  691.4458
 285  735.9862
 286  744.0925
 287  761.5489
 288  729.1408
 289  731.1512
 290  763.0814
 291  730.1346
 292  626.7392
 293  647.3321
 294  708.608
 295  715.8581
 296  700.5739
 297  772.4421
 298  791.5194
 299  783.5818
 300  801.6422
 301  745.7327
 302  699.0139
 303  739.2411
 304  843.5582
 305  815.671
 306  796.2334
 307  868.1901
 308  837.977
 309  827.397
 310  821.6664
 311  766.5242
 312  789.3132
 313  763.548
 314  701.5125
 315  774.4066
 316  713.6927
 317  717.4518
 318  766.3278
 319  743.6716
 320  875.8433
 321  816.8928
 322  784.7573
 323  769.5939
 324  714.2367
 325  732.0485
 326  783.9333
 327  770.6169
 328  887.0585
 329  846.515
 330  762.333
 331  843.3408
 332  823.4512
 333  791.2866
 334  721.1804
 335  753.0599
 336  820.1672
 337  771.0663
 338  718.8184
 339  737.5742
 340  700.1008
 341  704.6149
 342  783.4085
 343  885.6024
 344  830.2605
 345  842.045
 346  844.076
 347  832.3566
 348  761.1649
 349  781.4565
 350  874.7122
 351  857.0868
 352  809.8739
 353  850.5892
 354  794.2812
 355  847.3324
 356  890.4818
 357  901.5649
 358  802.5361
 359  857.9213
 360  801.797
 361  758.8742
 362  774.0919
 363  743.4103
 364  773.1942
 365  750.4949
 366  846.4667
 367  847.5034
 368  802.011
 369  833.6169
 370  835.8345
 371  826.0749
 372  834.8893
 373  823.1655
 374  779.6783
 375  838.9475
 376  717.2509
 377  766.7477
 378  879.4084
 379  845.5614
 380  810.2065
 381  794.4481
 382  831.3452
 383  839.4732
 384  890.0296
 385  912.5078
 386  907.7247
 387  878.011
 388  882.0698
 389  857.595
 390  908.8336
 391  820.1961
 392  833.2566
 393  873.4149
 394  864.3094
 395  841.5812
 396  821.6052
 397  881.4
 398  902.0155
 399  858.5745
 400  850.2222
 401  869.4686
 402  887.1337
 403  932.2931
 404  888.288
 405  912.5306
 406  871.3061
 407  856.8646
 408  844.1248
 409  749.8831
 410  825.3408
 411  907.6447
 412  879.8187
 413  834.6866
 414  850.215
 415  865.5247
 416  884.4487
 417  943.4686
 418  950.7447
 419  982.5556
 420  983.6707
 421  867.1031
 422  801.3151
 423  734.5168
 424  899.1486
 425  941.7972
 426  922.8787
 427  887.547
 428  930.8795
 429  876.9217
 430  917.4165
 431  852.9438
 432  838.1025
 433  874.5295
 434  832.9866
 435  853.201
 436  929.6509
 437  865.9113
 438  862.943
 439  884.5249
 440  864.2097
 441  819.7676
 442  838.8148
 443  883.5773
 444  918.5839
 445  825.8078
 446  799.3026
 447  820.142
 448  843.2955
 449  799.4951
 450  795.1973
 451  878.8529
 452  929.7679
 453  859.4799
 454  889.5607
 455  854.086
 456  814.2776
 457  877.4545
 458  858.6343
 459  861.9276
 460  831.2292
 461  812.9769
 462  832.9869
 463  849.6086
 464  826.4448
 465  856.1615
 466  877.787
 467  839.2153
 468  890.1422
 469  838.8165
 470  834.7292
 471  813.8339
 472  857.3647
 473  898.6738
 474  918.2642
 475  846.7003
 476  919.7787
 477  909.1853
 478  893.1725
 479  909.2951
 480  868.0947
 481  900.4065
 482  857.8124
 483  822.106
 484  839.7803
 485  842.5942
 486  849.3268
 487  832.1203
 488  844.5492
 489  805.2868
 490  810.0347
 491  745.5253
 492  812.0217
 493  687.7416
 494  666.0718
 495  766.0678
 496  780.0155
 497  734.1177
 498  725.7983
 499  702.6366
 500  685.7699
 501  792.6682
 502  764.9838
 503  694.7346
 504  691.8901
 505  753.9793
 506  782.3438
 507  726.3002
 508  724.2165
 509  700.4301
 510  622.4579
 511  647.8012
