# Input file       =  1207644063.222042_cleaned.dat
# Candidate        =  PSR_0332+5434
# Telescope        =  AR
# Epoch_topo       =  58221.362062755114
# Epoch_bary       =  N/A
# T_sample         =  0.002
# Data Folded      =  7340032
# Data Avg         =  0.0229437353783787
# Data StdDev      =  2.84204011405238 
# Profile Bins     =  1024
# Profile Avg      =  164.397760005627 
# Profile StdDev   =  240.618603451272 
# Reduced chi-sqr  =  1.917
# Prob(Noise)      <  1.44e-61   (~16.5 sigma)
# P_topo (ms)      =  714.561349312099  +/- 0.000225
# P'_topo (s/s)    =  -0                +/- 1.19e-10
# P''_topo (s/s^2) =  0                 +/- 5.24e-14
# P_bary (ms)      =  N/A
# P'_bary (s/s)    =  N/A
# P''_bary (s/s^2) =  N/A
# P_orb (s)        =  N/A
# asin(i)/c (s)    =  N/A
# eccentricity     =  N/A
# w (rad)          =  N/A
# T_peri           =  N/A
######################################################
   0  163.3236
   1  115.3987
   2  156.1892
   3  153.2955
   4  158.168
   5  190.3001
   6  164.8651
   7  149.3314
   8  153.4416
   9  161.7485
  10  101.0815
  11  45.72678
  12  85.93958
  13  125.2589
  14  140.5931
  15  139.0164
  16  213.1792
  17  211.303
  18  156.2805
  19  96.88136
  20  127.4167
  21  77.20792
  22  1.807306
  23  27.7475
  24  39.7414
  25  22.57694
  26  -33.3959
  27  29.1972
  28  51.09414
  29  15.74578
  30  95.75254
  31  192.3317
  32  237.8858
  33  147.2102
  34  104.4426
  35  167.5562
  36  219.0169
  37  227.371
  38  270.197
  39  268.784
  40  286.0551
  41  261.2684
  42  256.3815
  43  285.4457
  44  260.5623
  45  185.6489
  46  73.82446
  47  43.81121
  48  9.544904
  49  -13.81656
  50  29.27718
  51  114.4041
  52  187.528
  53  215.6346
  54  301.3912
  55  285.347
  56  226.2164
  57  209.5135
  58  171.6586
  59  169.1136
  60  92.0537
  61  115.3588
  62  153.2393
  63  213.5116
  64  89.00111
  65  145.9175
  66  111.0578
  67  221.7036
  68  144.592
  69  162.432
  70  174.1022
  71  165.5692
  72  135.4842
  73  119.6447
  74  113.8102
  75  151.172
  76  78.22806
  77  49.56636
  78  86.17318
  79  129.9739
  80  131.1401
  81  89.51875
  82  63.57141
  83  -30.40361
  84  -12.09892
  85  -72.47731
  86  -37.72723
  87  24.88483
  88  114.2566
  89  130.2764
  90  124.3697
  91  139.5178
  92  152.4466
  93  131.0579
  94  223.3338
  95  250.5954
  96  132.5555
  97  148.3968
  98  184.0806
  99  224.2882
 100  221.3542
 101  155.4294
 102  134.9304
 103  37.19489
 104  165.2506
 105  236.571
 106  199.3547
 107  113.7841
 108  118.3418
 109  155.5571
 110  202.4971
 111  244.3121
 112  353.3305
 113  271.2671
 114  129.5638
 115  192.2278
 116  187.3977
 117  184.5299
 118  -8.967694
 119  11.70903
 120  110.5883
 121  153.4137
 122  190.3891
 123  233.3441
 124  166.3026
 125  127.98
 126  245.4815
 127  341.5255
 128  299.7823
 129  135.3814
 130  184.081
 131  164.9341
 132  137.0057
 133  81.56526
 134  38.40553
 135  -3.492362
 136  1.815357
 137  142.7122
 138  177.5235
 139  112.9886
 140  44.17111
 141  -3.806093
 142  45.60126
 143  112.8959
 144  143.5412
 145  194.5084
 146  180.3047
 147  134.3018
 148  43.05197
 149  -41.16275
 150  -17.82693
 151  123.6978
 152  172.7875
 153  111.0193
 154  -66.71461
 155  -188.3486
 156  -107.9939
 157  -87.77126
 158  -27.18374
 159  -48.45203
 160  77.85091
 161  56.11593
 162  41.90045
 163  104.3693
 164  191.6822
 165  183.339
 166  23.51235
 167  -97.3741
 168  -88.41888
 169  -25.5567
 170  73.14048
 171  126.4845
 172  131.5998
 173  114.636
 174  -17.73056
 175  -51.3606
 176  -23.36363
 177  102.1314
 178  145.3581
 179  24.14416
 180  16.17235
 181  -73.18156
 182  -105.0119
 183  -158.319
 184  -105.9137
 185  -24.97857
 186  -47.53891
 187  -92.63442
 188  -97.2401
 189  -147.6413
 190  -133.7383
 191  -63.24391
 192  -1.763496
 193  119.3072
 194  139.8224
 195  203.7377
 196  133.5606
 197  58.30395
 198  -18.4689
 199  -28.18595
 200  -35.75889
 201  -27.63409
 202  -47.44428
 203  55.89352
 204  -44.10309
 205  -114.0623
 206  -165.1103
 207  -37.55992
 208  -55.69713
 209  -79.007
 210  -7.422124
 211  97.12763
 212  66.94109
 213  56.9711
 214  35.00899
 215  66.15836
 216  84.3793
 217  68.78599
 218  21.28741
 219  -95.28825
 220  -44.81935
 221  -33.77701
 222  -50.97622
 223  -66.99904
 224  -69.57126
 225  -38.90248
 226  -65.1148
 227  -77.27998
 228  38.8612
 229  48.55048
 230  37.10183
 231  -18.34394
 232  -57.80194
 233  -14.68388
 234  69.90622
 235  189.4179
 236  200.2218
 237  85.00247
 238  -8.848952
 239  -137.455
 240  -89.56119
 241  76.84077
 242  238.0881
 243  295.457
 244  237.6698
 245  224.0508
 246  72.89252
 247  -76.1184
 248  -142.1247
 249  -109.7298
 250  8.23628
 251  -24.66698
 252  36.6364
 253  115.623
 254  142.9706
 255  141.514
 256  83.3469
 257  7.542781
 258  35.31468
 259  35.93968
 260  149.6849
 261  265.3555
 262  276.1184
 263  347.2057
 264  243.1959
 265  272.297
 266  189.1212
 267  203.2248
 268  153.5244
 269  40.73879
 270  71.89677
 271  208.8947
 272  319.985
 273  375.5765
 274  324.72
 275  341.0172
 276  339.8195
 277  282.5516
 278  260.7229
 279  183.5613
 280  196.0036
 281  125.1346
 282  144.8802
 283  213.827
 284  153.0325
 285  131.3874
 286  53.0188
 287  93.35074
 288  169.135
 289  245.8712
 290  408.0511
 291  402.7917
 292  336.4099
 293  231.9804
 294  185.355
 295  191.1482
 296  270.4799
 297  364.0519
 298  447.7566
 299  234.1752
 300  52.97652
 301  72.80102
 302  204.8782
 303  355.7203
 304  405.4462
 305  395.8972
 306  353.0551
 307  193.1068
 308  150.9536
 309  65.53463
 310  168.4452
 311  242.0425
 312  250.0496
 313  68.89935
 314  22.30773
 315  27.34741
 316  140.8533
 317  133.5998
 318  176.6067
 319  272.7729
 320  179.3184
 321  120.8711
 322  8.09716
 323  113.9889
 324  159.1404
 325  136.5541
 326  129.9665
 327  155.8453
 328  270.0711
 329  349.5887
 330  299.8286
 331  316.2133
 332  196.3228
 333  215.9921
 334  201.578
 335  274.1417
 336  267.8176
 337  193.9582
 338  246.5472
 339  180.9877
 340  210.366
 341  201.1602
 342  212.49
 343  205.2011
 344  219.5773
 345  167.0778
 346  116.8188
 347  -97.36617
 348  -42.68449
 349  -67.82978
 350  -32.70351
 351  -57.70601
 352  -78.06047
 353  35.20286
 354  113.2066
 355  145.8402
 356  134.738
 357  67.52367
 358  44.52869
 359  -49.46881
 360  -22.83922
 361  27.4593
 362  70.70892
 363  87.14905
 364  77.66582
 365  -10.08857
 366  -138.4985
 367  -244.6676
 368  -160.9901
 369  -80.75673
 370  -20.90064
 371  -55.54538
 372  -42.48601
 373  95.26854
 374  182.9975
 375  165.9872
 376  121.8065
 377  -35.52143
 378  -19.45939
 379  10.8721
 380  52.35356
 381  128.8518
 382  92.27077
 383  3.518854
 384  -11.88929
 385  -6.621651
 386  173.0006
 387  104.6399
 388  110.2085
 389  110.5135
 390  160.1399
 391  196.8623
 392  188.5624
 393  110.3816
 394  107.5206
 395  101.9598
 396  243.9836
 397  227.7187
 398  282.0163
 399  248.9124
 400  327.4508
 401  357.0396
 402  376.6827
 403  405.4265
 404  377.098
 405  346.6231
 406  339.1241
 407  223.345
 408  164.0654
 409  125.2172
 410  146.0188
 411  83.34194
 412  99.58337
 413  199.9129
 414  296.7278
 415  276.6095
 416  251.7712
 417  222.1586
 418  293.1246
 419  352.5194
 420  342.7019
 421  414.7129
 422  396.1359
 423  484.589
 424  378.6215
 425  400.7846
 426  481.7485
 427  505.4311
 428  433.8049
 429  411.5908
 430  361.4189
 431  344.6883
 432  323.397
 433  374.5676
 434  331.9483
 435  186.9611
 436  168.856
 437  176.4815
 438  339.7703
 439  400.6245
 440  430.1748
 441  392.1794
 442  296.3545
 443  235.7642
 444  180.3622
 445  215.3255
 446  250.311
 447  316.7148
 448  309.6039
 449  305.1915
 450  208.2714
 451  211.5286
 452  99.47675
 453  102.9485
 454  51.50881
 455  78.93906
 456  220.6136
 457  307.5472
 458  337.1721
 459  197.9163
 460  105.5738
 461  67.75888
 462  90.51781
 463  139.9939
 464  213.6832
 465  156.6597
 466  211.8794
 467  180.1445
 468  354.7051
 469  393.5465
 470  301.0959
 471  332.2422
 472  302.7329
 473  334.9478
 474  244.5852
 475  151.0878
 476  75.23295
 477  -0.6875476
 478  97.53928
 479  141.2757
 480  133.8738
 481  218.319
 482  302.0938
 483  312.8517
 484  237.0405
 485  242.7171
 486  252.1496
 487  235.9987
 488  246.1618
 489  320.5785
 490  215.8181
 491  154.9686
 492  216.5498
 493  374.2512
 494  337.6892
 495  183.8908
 496  132.7873
 497  99.78538
 498  43.32225
 499  55.87514
 500  14.81946
 501  82.39146
 502  50.11504
 503  107.6932
 504  65.49164
 505  73.63377
 506  115.2611
 507  194.0363
 508  170.2735
 509  99.08384
 510  9.368606
 511  35.50935
 512  11.83557
 513  -0.6245127
 514  -12.1184
 515  71.41231
 516  35.10526
 517  9.989951
 518  45.43335
 519  204.2666
 520  200.1997
 521  186.9143
 522  152.4314
 523  200.6452
 524  53.68998
 525  -21.13529
 526  80.782
 527  134.4406
 528  -12.49017
 529  -44.53331
 530  62.33361
 531  77.4195
 532  42.04058
 533  44.13914
 534  153.0255
 535  155.5327
 536  208.4292
 537  248.0908
 538  257.1978
 539  217.2618
 540  116.9036
 541  128.7191
 542  163.418
 543  218.3455
 544  234.7009
 545  158.6142
 546  117.9451
 547  54.95148
 548  72.00438
 549  50.81709
 550  23.81768
 551  41.66222
 552  115.0208
 553  178.8853
 554  190.1358
 555  138.7238
 556  199.0097
 557  326.2758
 558  414.718
 559  378.3691
 560  222.321
 561  173.5855
 562  269.7888
 563  320.7249
 564  319.6655
 565  219.8016
 566  310.816
 567  432.5765
 568  476.6014
 569  329.5074
 570  255.7089
 571  296.9176
 572  363.1308
 573  325.1667
 574  396.5095
 575  314.2737
 576  279.119
 577  208.5829
 578  140.2106
 579  82.85563
 580  58.70115
 581  75.87122
 582  120.1125
 583  172.0391
 584  171.2053
 585  140.1739
 586  147.6696
 587  243.4998
 588  280.123
 589  291.4502
 590  381.2095
 591  498.1357
 592  498.9704
 593  378.4787
 594  443.4199
 595  505.1835
 596  526.0056
 597  586.0108
 598  953.5594
 599  1291.751
 600  1330.423
 601  1272.923
 602  1314.93
 603  1446.633
 604  1584.764
 605  1503.213
 606  1505.608
 607  1331.525
 608  1192.047
 609  955.1005
 610  741.7069
 611  617.1688
 612  492.0665
 613  402.8207
 614  287.4443
 615  148.9021
 616  -27.22692
 617  -70.46627
 618  -19.42178
 619  105.1042
 620  122.1452
 621  211.6039
 622  287.8843
 623  291.5451
 624  326.1378
 625  336.3906
 626  377.6358
 627  365.9678
 628  368.81
 629  299.453
 630  252.1801
 631  260.5701
 632  305.8206
 633  275.82
 634  237.28
 635  220.3586
 636  222.5481
 637  188.5525
 638  144.1082
 639  155.493
 640  207.5154
 641  291.7131
 642  266.3942
 643  244.9239
 644  213.648
 645  255.4273
 646  195.4441
 647  125.6596
 648  -25.44295
 649  7.80316
 650  93.48506
 651  193.5698
 652  211.8199
 653  175.6824
 654  24.76253
 655  60.00131
 656  212.7331
 657  243.037
 658  202.7429
 659  134.5823
 660  147.4236
 661  19.5873
 662  96.91734
 663  165.722
 664  268.4663
 665  232.8908
 666  293.9797
 667  221.3286
 668  170.1711
 669  124.6151
 670  159.4386
 671  209.3283
 672  238.6098
 673  247.8807
 674  395.3643
 675  309.3352
 676  277.8408
 677  159.8416
 678  218.8443
 679  286.7173
 680  360.5003
 681  388.7031
 682  304.6861
 683  126.1434
 684  81.68815
 685  103.8463
 686  158.7061
 687  193.3493
 688  187.9992
 689  262.1729
 690  236.4687
 691  144.1305
 692  46.14053
 693  -1.400559
 694  136.3244
 695  176.8197
 696  291.3615
 697  390.5302
 698  448.9054
 699  409.9611
 700  391.6065
 701  385.1944
 702  376.4582
 703  362.4877
 704  326.5282
 705  332.6568
 706  331.24
 707  382.7176
 708  395.693
 709  360.9244
 710  322.1815
 711  274.0088
 712  247.4818
 713  248.5223
 714  323.7605
 715  413.6804
 716  399.6575
 717  370.321
 718  252.2812
 719  149.731
 720  59.87637
 721  157.3392
 722  304.0635
 723  339.6186
 724  397.1756
 725  443.6686
 726  457.2971
 727  466.3155
 728  407.5052
 729  267.3965
 730  240.2654
 731  287.5476
 732  227.6358
 733  95.9827
 734  67.90361
 735  148.7573
 736  316.5229
 737  261.4729
 738  209.5851
 739  95.71379
 740  70.8638
 741  -5.241095
 742  -58.304
 743  -64.11377
 744  -8.125942
 745  40.11001
 746  55.46509
 747  112.3047
 748  123.1821
 749  109.293
 750  110.1374
 751  159.2652
 752  184.2751
 753  191.2997
 754  140.1177
 755  148.9446
 756  154.9442
 757  230.4585
 758  196.9248
 759  175.7738
 760  70.97844
 761  86.68949
 762  160.1118
 763  227.9937
 764  262.1845
 765  223.3007
 766  186.1786
 767  124.2873
 768  103.2557
 769  102.6729
 770  103.0826
 771  42.76811
 772  123.2507
 773  152.0353
 774  337.5203
 775  263.4911
 776  172.0162
 777  101.8458
 778  101.4249
 779  168.7459
 780  208.672
 781  246.6229
 782  213.3793
 783  176.7201
 784  101.5376
 785  -5.875719
 786  -103.3015
 787  -27.76328
 788  130.3705
 789  268.1426
 790  210.1586
 791  145.6081
 792  69.33534
 793  26.99964
 794  38.86906
 795  150.2331
 796  180.7095
 797  89.20982
 798  68.1358
 799  79.22825
 800  132.6793
 801  32.60723
 802  0.4548663
 803  -41.89634
 804  90.97449
 805  134.5453
 806  214.8624
 807  204.9906
 808  154.4744
 809  110.6364
 810  81.76736
 811  60.32507
 812  156.9127
 813  181.5248
 814  243.2443
 815  179.1862
 816  154.5827
 817  92.93434
 818  46.22538
 819  19.33557
 820  30.30074
 821  89.96208
 822  136.6479
 823  129.5372
 824  221.2236
 825  276.5816
 826  311.8966
 827  261.3369
 828  165.6977
 829  109.4591
 830  61.12994
 831  33.89
 832  1.521681
 833  25.91904
 834  -24.16757
 835  -88.76085
 836  -82.55943
 837  2.06976
 838  32.1551
 839  49.48284
 840  9.066842
 841  35.51435
 842  48.69702
 843  131.5631
 844  150.9911
 845  241.3344
 846  292.0966
 847  260.7723
 848  99.80597
 849  26.11301
 850  61.91169
 851  109.7255
 852  72.36281
 853  92.86666
 854  163.4621
 855  194.0593
 856  203.7463
 857  214.4373
 858  249.1635
 859  271.2606
 860  368.6321
 861  417.0509
 862  379.5619
 863  265.1841
 864  171.4036
 865  134.0081
 866  79.09032
 867  6.917108
 868  -37.99133
 869  20.66811
 870  117.2333
 871  215.6173
 872  268.4142
 873  331.1895
 874  253.8247
 875  48.02811
 876  7.83765
 877  45.66571
 878  85.51309
 879  83.92159
 880  132.266
 881  132.4091
 882  154.1402
 883  260.4
 884  305.3963
 885  163.7843
 886  34.24101
 887  -35.26779
 888  -15.41754
 889  46.7832
 890  68.83066
 891  151.7265
 892  289.9913
 893  395.8195
 894  465.4606
 895  343.8878
 896  269.4438
 897  205.1707
 898  254.6859
 899  176.3267
 900  100.4233
 901  77.75764
 902  87.46014
 903  103.6116
 904  29.21077
 905  -22.18397
 906  -28.00915
 907  -29.0964
 908  -104.6391
 909  -247.1701
 910  -173.6792
 911  50.26986
 912  131.8277
 913  158.5584
 914  96.30817
 915  -0.05539044
 916  -179.172
 917  -164.2409
 918  -38.65251
 919  101.475
 920  59.32616
 921  63.92382
 922  39.88986
 923  134.3052
 924  171.9615
 925  -10.61615
 926  -32.18676
 927  -39.22456
 928  153.6621
 929  146.0588
 930  165.2645
 931  135.7786
 932  169.7847
 933  226.8669
 934  185.0313
 935  74.08055
 936  -28.38679
 937  -12.54898
 938  31.44211
 939  122.7601
 940  151.1578
 941  112.6687
 942  32.8367
 943  46.94244
 944  55.72295
 945  16.89509
 946  30.72222
 947  24.88546
 948  70.68536
 949  22.14384
 950  -104.596
 951  -148.6606
 952  -205.1239
 953  -157.8198
 954  -118.6948
 955  -17.09943
 956  61.15561
 957  32.8031
 958  9.330353
 959  115.5721
 960  270.1237
 961  292.7309
 962  100.8815
 963  -49.26215
 964  -15.28716
 965  -10.4249
 966  47.47736
 967  -21.7419
 968  24.41732
 969  6.980968
 970  135.3283
 971  66.41711
 972  11.01236
 973  51.66142
 974  90.39114
 975  154.7805
 976  70.38589
 977  129.571
 978  85.41714
 979  43.89981
 980  62.33862
 981  -8.735415
 982  -37.91701
 983  -68.78171
 984  32.77024
 985  133.2249
 986  205.3637
 987  241.7704
 988  335.6708
 989  325.4435
 990  230.8451
 991  160.6146
 992  190.8183
 993  181.614
 994  159.9775
 995  161.5835
 996  194.062
 997  219.4185
 998  138.1917
 999  166.0353
1000  160.5704
1001  142.6967
1002  115.906
1003  39.49846
1004  43.019
1005  81.8003
1006  253.5902
1007  267.1126
1008  213.2961
1009  152.6006
1010  271.0957
1011  213.1945
1012  208.3323
1013  96.67484
1014  147.3199
1015  187.3889
1016  434.9597
1017  474.7089
1018  435.4116
1019  323.0256
1020  362.4321
1021  362.8925
1022  387.8149
1023  250.9195
