# Input file       =  1207722527.104559_cleaned.dat
# Candidate        =  PSR_0332+5434
# Telescope        =  AR
# Epoch_topo       =  58222.270209543509
# Epoch_bary       =  N/A
# T_sample         =  0.002
# Data Folded      =  7274496
# Data Avg         =  0.212386900494042
# Data StdDev      =  5.04349354355564 
# Profile Bins     =  1024
# Profile Avg      =  1508.8998391896  
# Profile StdDev   =  425.092013437205 
# Reduced chi-sqr  =  1.030
# Prob(Noise)      <  0.249   (~0.7 sigma)
# P_topo (ms)      =  714.560708560175  +/- 4.42e-05
# P'_topo (s/s)    =  -0                +/- 2.35e-11
# P''_topo (s/s^2) =  0                 +/- 1.05e-14
# P_bary (ms)      =  N/A
# P'_bary (s/s)    =  N/A
# P''_bary (s/s^2) =  N/A
# P_orb (s)        =  N/A
# asin(i)/c (s)    =  N/A
# eccentricity     =  N/A
# w (rad)          =  N/A
# T_peri           =  N/A
######################################################
   0  1575.232
   1  1598.549
   2  1427.876
   3  1538.993
   4  1541.345
   5  1649.411
   6  1515.19
   7  1370.298
   8  1365.059
   9  1217.387
  10  1277.023
  11  1305.693
  12  1392.86
  13  1537.586
  14  1596.856
  15  1538.627
  16  1340.89
  17  1052.953
  18  900.5489
  19  1029.123
  20  1105.48
  21  1301.405
  22  1227.703
  23  1462.939
  24  1468.221
  25  1414.379
  26  1448.562
  27  1491.026
  28  1708.594
  29  1773.982
  30  1854.218
  31  1754.552
  32  1709.757
  33  1805.536
  34  1808.518
  35  1660.359
  36  1607.924
  37  1635.276
  38  1670.562
  39  1584.435
  40  1478.354
  41  1222.539
  42  925.1259
  43  993.4262
  44  1156.687
  45  1288.437
  46  1535.086
  47  1746.313
  48  1931.241
  49  1797.302
  50  1649.045
  51  1595.292
  52  1488.586
  53  1502.85
  54  1448.633
  55  1256.613
  56  1221.48
  57  1074.137
  58  1210.134
  59  1192.25
  60  1395.709
  61  1637.748
  62  1922.849
  63  2034.557
  64  2045.261
  65  2075.932
  66  2025.118
  67  1797.858
  68  1570.789
  69  1596.48
  70  1633.995
  71  1565.429
  72  1385.161
  73  1385.083
  74  1322.56
  75  1279.029
  76  1254.244
  77  1305.006
  78  1347.469
  79  1412.645
  80  1415.618
  81  1433.411
  82  1423.367
  83  1466.431
  84  1515.686
  85  1469.552
  86  1541.567
  87  1568.529
  88  1684.524
  89  1610.875
  90  1356.246
  91  1350.435
  92  1394.021
  93  1714.849
  94  1803.73
  95  1899.547
  96  1921.021
  97  1870.055
  98  1795.068
  99  1803.096
 100  1645.875
 101  1576.565
 102  1540.631
 103  1528.455
 104  1574.314
 105  1403.548
 106  1447.662
 107  1203.493
 108  1238.504
 109  1261.474
 110  1430.2
 111  1442.135
 112  1542.879
 113  1578.773
 114  1455.951
 115  1276.137
 116  1358.778
 117  1349.482
 118  1318.503
 119  1367.989
 120  1368.906
 121  1448.218
 122  1344.817
 123  1489.38
 124  1443.459
 125  1385.677
 126  1522.671
 127  1682.633
 128  1735.412
 129  1598.75
 130  1636.404
 131  1776.647
 132  1761.698
 133  1617.76
 134  1610.506
 135  1696.388
 136  1865.306
 137  1789.14
 138  1717.35
 139  1392.082
 140  1161.297
 141  1119.527
 142  1207.044
 143  1384.011
 144  1533.969
 145  1675.867
 146  1619.28
 147  1476.698
 148  1397.686
 149  1609.467
 150  1528.201
 151  1506.702
 152  1465.641
 153  1617.422
 154  1607.145
 155  1369.633
 156  1386.01
 157  1291.114
 158  1276.436
 159  1310.869
 160  1430.911
 161  1629.156
 162  1680.281
 163  1751.983
 164  1697.089
 165  1581.339
 166  1713.25
 167  1696.683
 168  1604.834
 169  1575.936
 170  1570.508
 171  1649.592
 172  1468.07
 173  1497.452
 174  1329.99
 175  1377.46
 176  1574.031
 177  1780.784
 178  1611.118
 179  1488.725
 180  1368.088
 181  1353.606
 182  1365.995
 183  1352.597
 184  1604.847
 185  1458.85
 186  1482.006
 187  1228.568
 188  1228.498
 189  1254.545
 190  1345.573
 191  1391.386
 192  1483.138
 193  1449.348
 194  1656.003
 195  1748.038
 196  1755.46
 197  1686.487
 198  1566.151
 199  1672.88
 200  1592.497
 201  1634.935
 202  1551.551
 203  1590.736
 204  1465.321
 205  1217.387
 206  1066.17
 207  1003.615
 208  1163.61
 209  1299.286
 210  1349.182
 211  1448
 212  1617.748
 213  1819.189
 214  1862.548
 215  1718.828
 216  1473.098
 217  1344.174
 218  1323.888
 219  1341.263
 220  1086.487
 221  1079.43
 222  1141.761
 223  1076.648
 224  1118.107
 225  1309.379
 226  1594.408
 227  1669.669
 228  1863.053
 229  1927.819
 230  1706.172
 231  1517.474
 232  1622.637
 233  1807.793
 234  1886.656
 235  1891.321
 236  1794.367
 237  1421.046
 238  1222.223
 239  1278.621
 240  1351.976
 241  1207.732
 242  1306.948
 243  1387.424
 244  1524.987
 245  1339.489
 246  1233.605
 247  1302.942
 248  1261.788
 249  1452.913
 250  1422.688
 251  1493.621
 252  1419.547
 253  1469.557
 254  1588.857
 255  1392.656
 256  1256.17
 257  1210.951
 258  1396.827
 259  1550.366
 260  1736.604
 261  1836.832
 262  1807.708
 263  1615.641
 264  1616.068
 265  1466.031
 266  1348.587
 267  1445.165
 268  1644.706
 269  1712.556
 270  1492.142
 271  1344.669
 272  1266.925
 273  1188.817
 274  1226.886
 275  1272.245
 276  1306.439
 277  1254.95
 278  1350.255
 279  1465.345
 280  1401.018
 281  1266.625
 282  1378.92
 283  1410.978
 284  1451.431
 285  1375.282
 286  1551.362
 287  1407.008
 288  1211.936
 289  1145.823
 290  1194.085
 291  1383.771
 292  1545.951
 293  1805.676
 294  1857.419
 295  1827.563
 296  1821.116
 297  1817.765
 298  1686.395
 299  1593.335
 300  1578.056
 301  1579.234
 302  1535.392
 303  1545.34
 304  1547.021
 305  1368.867
 306  1169.755
 307  1095.087
 308  1191.584
 309  1320.85
 310  1333.441
 311  1184.474
 312  1086.452
 313  996.5578
 314  1119.008
 315  1214.759
 316  1256.513
 317  1363.978
 318  1391.565
 319  1605.958
 320  1555.665
 321  1488.482
 322  1453.685
 323  1556.069
 324  1686.599
 325  1731.329
 326  1717.257
 327  1774.833
 328  1822.037
 329  1876.388
 330  1733.95
 331  1624.964
 332  1667.251
 333  1671.522
 334  1668.926
 335  1434.89
 336  1369.391
 337  1397.073
 338  1446.103
 339  1354.751
 340  1317.049
 341  1433.073
 342  1780.336
 343  1841.965
 344  1822.106
 345  1634.726
 346  1573.268
 347  1622.707
 348  1510.839
 349  1395.985
 350  1287.624
 351  1288.118
 352  1357.933
 353  1247.686
 354  1291.344
 355  1223.639
 356  1257.105
 357  1326.797
 358  1619.087
 359  1759.768
 360  1780.765
 361  1788.949
 362  1935.775
 363  1848.24
 364  1791.165
 365  1723.9
 366  1737.476
 367  1566.209
 368  1420.092
 369  1389.708
 370  1253.496
 371  1070.153
 372  968.092
 373  1089.43
 374  1326.331
 375  1552.47
 376  1539.261
 377  1560.065
 378  1446.992
 379  1463.511
 380  1508.79
 381  1398.214
 382  1437.649
 383  1443.02
 384  1658.488
 385  1511.73
 386  1398.047
 387  1285.796
 388  1319.002
 389  1231.555
 390  1383.813
 391  1613.415
 392  1806.176
 393  1776.771
 394  1735.523
 395  1753.883
 396  1587.166
 397  1666.48
 398  1684.246
 399  1688.889
 400  1523.775
 401  1576.849
 402  1626.73
 403  1509.533
 404  1220.66
 405  1254.365
 406  1237.675
 407  1397.773
 408  1441.755
 409  1534.632
 410  1567.692
 411  1407.313
 412  1404.924
 413  1334.414
 414  1335.594
 415  1302.013
 416  1347.41
 417  1440.992
 418  1369.89
 419  1414.359
 420  1485.07
 421  1384.512
 422  1220.307
 423  1191.981
 424  1418.767
 425  1688.992
 426  1739.134
 427  1704.784
 428  1570.293
 429  1490.817
 430  1606.752
 431  1692.506
 432  1751.316
 433  1723.14
 434  1734.478
 435  1696.745
 436  1522.067
 437  1394.621
 438  1387.337
 439  1222.46
 440  1274.903
 441  1324.44
 442  1459.706
 443  1517.146
 444  1474.873
 445  1458.984
 446  1279.597
 447  1204.102
 448  1300.662
 449  1437.698
 450  1520.727
 451  1573.841
 452  1500.11
 453  1388.712
 454  1219.39
 455  1333.931
 456  1450.346
 457  1629.706
 458  1780.546
 459  1707.505
 460  1674.547
 461  1696.201
 462  1778.623
 463  1735.274
 464  1616.032
 465  1680.48
 466  1794.546
 467  1791.865
 468  1724.763
 469  1492.423
 470  1491.219
 471  1509.341
 472  1424.69
 473  1471.669
 474  1469.376
 475  1639.994
 476  1537.701
 477  1431.968
 478  1341.369
 479  1218.536
 480  1251.622
 481  1213.603
 482  1227.227
 483  1259.151
 484  1323.75
 485  1502.362
 486  1392.963
 487  1330.443
 488  1391.829
 489  1504.109
 490  1752.258
 491  1847.019
 492  1941.233
 493  1958.717
 494  1895.811
 495  1835.765
 496  1503.937
 497  1446.486
 498  1536.517
 499  1683.94
 500  1684.82
 501  1565.977
 502  1417.558
 503  1371.188
 504  1305.846
 505  1354.604
 506  1372.29
 507  1474.716
 508  1612.921
 509  1707.407
 510  1688.902
 511  1458.031
 512  1318.524
 513  1257.208
 514  1164.451
 515  1117.32
 516  1076.287
 517  1184.725
 518  1227.52
 519  1109.473
 520  1158.039
 521  1330.039
 522  1479.024
 523  1684.247
 524  1885.671
 525  2044.267
 526  1888.923
 527  1661.681
 528  1482.274
 529  1289.705
 530  1346.495
 531  1402.593
 532  1497.307
 533  1471.331
 534  1400.467
 535  1369.597
 536  1268.692
 537  1125.519
 538  1183.348
 539  1205.555
 540  1445.239
 541  1554.989
 542  1654.428
 543  1755.005
 544  1598.167
 545  1471.773
 546  1193.867
 547  1115.393
 548  1026.804
 549  1033.185
 550  1163.449
 551  1281.042
 552  1256.214
 553  1279.826
 554  1286.546
 555  1441.904
 556  1685.307
 557  1902.604
 558  1984.162
 559  1833.841
 560  1769.443
 561  1733.817
 562  1657.959
 563  1619.703
 564  1649.88
 565  1636.615
 566  1572.093
 567  1575.294
 568  1731.991
 569  1624.789
 570  1305.388
 571  1118.28
 572  1118.413
 573  1292.216
 574  1284.75
 575  1364.742
 576  1384.942
 577  1332.872
 578  1364.026
 579  1372.809
 580  1517.645
 581  1509.655
 582  1637.741
 583  1728.232
 584  1596.77
 585  1347.06
 586  1375.076
 587  1404.857
 588  1502.967
 589  1605.481
 590  1816.963
 591  1864.389
 592  1682.145
 593  1768.049
 594  1873.502
 595  1991.571
 596  2050.726
 597  2157.572
 598  2207.075
 599  2191.751
 600  2260.35
 601  2558.376
 602  2525.423
 603  2623.122
 604  2595.773
 605  2567.828
 606  2494.009
 607  2307.869
 608  2351.093
 609  2239.225
 610  2038.068
 611  1815.587
 612  1554.829
 613  1512.225
 614  1522.075
 615  1573.785
 616  1638.263
 617  1398.16
 618  1501.788
 619  1384.934
 620  1347.019
 621  1358.964
 622  1560.418
 623  1827.172
 624  1787.496
 625  1762.233
 626  1711.149
 627  1631.703
 628  1726.568
 629  1709.809
 630  1664.842
 631  1689.008
 632  1749.683
 633  1859.611
 634  1707.554
 635  1272.098
 636  1179.091
 637  1119.358
 638  1424.957
 639  1433.23
 640  1531.302
 641  1676.622
 642  1587.403
 643  1509.863
 644  1293.333
 645  1317.382
 646  1535.2
 647  1604.036
 648  1692.227
 649  1545.967
 650  1363.32
 651  1426.541
 652  1345.495
 653  1491.715
 654  1520.408
 655  1603.615
 656  1707.989
 657  1739.887
 658  1944.467
 659  1992.819
 660  1945.402
 661  1956.373
 662  1725.934
 663  1639.843
 664  1609.95
 665  1628.805
 666  1645.059
 667  1583.269
 668  1623.718
 669  1714.087
 670  1705.671
 671  1862.026
 672  1777.321
 673  1802.832
 674  1623.176
 675  1415.082
 676  1315.043
 677  1184.341
 678  1201.377
 679  1134.367
 680  1214.061
 681  1311.795
 682  1468.155
 683  1609.373
 684  1648.981
 685  1549.521
 686  1774.452
 687  1786.102
 688  1892.462
 689  1877.896
 690  1897.518
 691  2051.541
 692  1836.04
 693  1833.668
 694  1564.086
 695  1544.913
 696  1553.281
 697  1681.456
 698  1644.528
 699  1608.815
 700  1458.065
 701  1409.12
 702  1567.338
 703  1620.232
 704  1660.393
 705  1598.907
 706  1765.792
 707  1691.514
 708  1570.33
 709  1490.685
 710  1401.276
 711  1308.632
 712  1296.722
 713  1423.638
 714  1266.424
 715  1045.73
 716  1178.602
 717  1303.697
 718  1376.948
 719  1395.295
 720  1504.353
 721  1746.22
 722  1989.458
 723  2180.649
 724  2091.355
 725  1943.085
 726  1939.93
 727  1778.591
 728  1495.726
 729  1421.659
 730  1550.139
 731  1648.897
 732  1571.922
 733  1509.085
 734  1459.667
 735  1222.741
 736  1160.35
 737  1086.033
 738  1267.893
 739  1401.92
 740  1351.751
 741  1351.376
 742  1230.843
 743  1391.538
 744  1364.722
 745  1386.123
 746  1427.231
 747  1613.12
 748  1566.614
 749  1505.361
 750  1154.75
 751  1233.908
 752  1197.857
 753  1390.996
 754  1482.607
 755  1532.274
 756  1569.874
 757  1682.085
 758  1829.169
 759  1907.058
 760  1647.783
 761  1641.709
 762  1649.791
 763  1594.292
 764  1458.25
 765  1334.802
 766  1484.595
 767  1320.893
 768  1088.571
 769  1099.799
 770  1099.524
 771  1242.331
 772  1305.47
 773  1446.167
 774  1462.246
 775  1425.991
 776  1596.206
 777  1568.789
 778  1442.316
 779  1347.42
 780  1365.035
 781  1493.745
 782  1431.245
 783  1275.075
 784  1341.098
 785  1237.338
 786  1341.635
 787  1245.219
 788  1502.238
 789  1559.889
 790  1641.039
 791  1808.303
 792  1813.185
 793  1674.22
 794  1552.173
 795  1536.624
 796  1666.617
 797  1630.149
 798  1645.504
 799  1609.716
 800  1469.569
 801  1387.905
 802  1336.101
 803  1239.287
 804  1335.702
 805  1388.768
 806  1600.172
 807  1586.802
 808  1588.817
 809  1470.073
 810  1134.395
 811  1051.786
 812  1275.925
 813  1470.326
 814  1467.367
 815  1290.387
 816  1356.797
 817  1347.891
 818  1208.73
 819  1347.47
 820  1548.425
 821  1807.885
 822  1856.221
 823  1798.596
 824  1776.821
 825  1546.781
 826  1598.98
 827  1481.238
 828  1384.191
 829  1384.7
 830  1442.818
 831  1567.367
 832  1504.978
 833  1251.805
 834  1263.752
 835  1255.035
 836  1415.864
 837  1361.273
 838  1360.622
 839  1473.163
 840  1351.675
 841  1349.937
 842  1243.677
 843  1152.298
 844  1106.887
 845  1063.365
 846  1246.619
 847  1349
 848  1205.291
 849  1390.991
 850  1342.157
 851  1368.141
 852  1280.679
 853  1310.321
 854  1559.83
 855  1602.409
 856  1772.875
 857  1784.371
 858  1667.035
 859  1593.62
 860  1478.149
 861  1431.509
 862  1478.191
 863  1470.785
 864  1526.595
 865  1364.1
 866  1311.494
 867  1260.328
 868  1170.69
 869  1266.573
 870  1407.364
 871  1674.638
 872  1733.897
 873  1579.236
 874  1375.465
 875  1326.097
 876  1334.731
 877  1360.431
 878  1320.53
 879  1259.863
 880  1199.586
 881  1132.192
 882  1337.97
 883  1128.156
 884  1270.833
 885  1305.476
 886  1572.033
 887  1666.987
 888  1813.172
 889  1938.676
 890  1909.682
 891  1858.356
 892  1761.769
 893  1591.71
 894  1567.304
 895  1751.313
 896  1837.771
 897  1865.609
 898  1578.858
 899  1499.651
 900  1301.039
 901  1306.407
 902  1403.104
 903  1407.418
 904  1608.788
 905  1632.667
 906  1607.387
 907  1523.824
 908  1347.53
 909  1448.71
 910  1430.344
 911  1539.924
 912  1473.328
 913  1367.559
 914  1434.951
 915  1266.554
 916  1151.978
 917  1222.726
 918  1470.529
 919  1638.873
 920  1800.978
 921  1967.712
 922  2032.718
 923  1869.554
 924  1890.814
 925  1895.239
 926  1854.178
 927  1765.383
 928  1660.366
 929  1533.975
 930  1440.772
 931  1399.638
 932  1412.19
 933  1221.863
 934  1138.768
 935  1126.283
 936  1297.224
 937  1473.921
 938  1487.922
 939  1551.919
 940  1602.354
 941  1781.203
 942  1671.167
 943  1486.611
 944  1444.037
 945  1570.089
 946  1544.878
 947  1586.688
 948  1349.688
 949  1397.168
 950  1313.239
 951  1422.022
 952  1559.383
 953  1546.297
 954  1767.188
 955  1811.435
 956  1926.638
 957  1855.074
 958  1880.613
 959  1818.806
 960  1780.329
 961  1723.706
 962  1845.707
 963  1688.749
 964  1595.347
 965  1463.839
 966  1324.312
 967  1257.655
 968  1238.72
 969  1286.589
 970  1476.697
 971  1545.531
 972  1588.856
 973  1477.428
 974  1472.363
 975  1474.572
 976  1180.883
 977  1209.426
 978  1200.698
 979  1354.401
 980  1316.318
 981  1244.872
 982  1414.729
 983  1357.242
 984  1407.668
 985  1436.425
 986  1461.609
 987  1628.753
 988  1686.069
 989  1806.112
 990  1690.568
 991  1507.761
 992  1603.198
 993  1638.297
 994  1806.03
 995  1781.033
 996  1689.069
 997  1607.904
 998  1381.637
 999  1294.571
1000  1264.613
1001  1331.072
1002  1521.86
1003  1475.806
1004  1478.679
1005  1344.283
1006  1264.559
1007  1316.098
1008  1359.842
1009  1303.913
1010  1341.322
1011  1375.338
1012  1601.836
1013  1462.068
1014  1345.478
1015  1328.059
1016  1135.356
1017  1341.154
1018  1266.66
1019  1418.64
1020  1383.954
1021  1602.274
1022  1758.359
1023  1696.047
