# Input file       =  1207838381.10396_cleaned.dat
# Candidate        =  PSR_0332+5434
# Telescope        =  AR
# Epoch_topo       =  58223.611112314349
# Epoch_bary       =  N/A
# T_sample         =  0.002
# Data Folded      =  7340032
# Data Avg         =  0.203670491369848
# Data StdDev      =  5.19029551763367 
# Profile Bins     =  1024
# Profile Avg      =  1459.91760908935 
# Profile StdDev   =  439.431397458943 
# Reduced chi-sqr  =  1.461
# Prob(Noise)      <  2.31e-20   (~9.2 sigma)
# P_topo (ms)      =  714.560036528475  +/- 0.000205
# P'_topo (s/s)    =  -0                +/- 1.08e-10
# P''_topo (s/s^2) =  0                 +/- 4.79e-14
# P_bary (ms)      =  N/A
# P'_bary (s/s)    =  N/A
# P''_bary (s/s^2) =  N/A
# P_orb (s)        =  N/A
# asin(i)/c (s)    =  N/A
# eccentricity     =  N/A
# w (rad)          =  N/A
# T_peri           =  N/A
######################################################
   0  1431.894
   1  1352.328
   2  1404.655
   3  1583.317
   4  1510.856
   5  1387.105
   6  1292.226
   7  1286.427
   8  1192.413
   9  1222.461
  10  1334.384
  11  1531.492
  12  1616.05
  13  1638.41
  14  1557.492
  15  1545.42
  16  1491.348
  17  1488.631
  18  1497.673
  19  1499.955
  20  1634.756
  21  1800.339
  22  1772.027
  23  1713.347
  24  1584.327
  25  1648.336
  26  1685.62
  27  1777.257
  28  1790.378
  29  1772.993
  30  1824.183
  31  1859.015
  32  2034.246
  33  2091.312
  34  2027.8
  35  1971.922
  36  1842.311
  37  1891.229
  38  2007.393
  39  2084.314
  40  2030.774
  41  1899.414
  42  1770.437
  43  1895.991
  44  1988.238
  45  1970.787
  46  1828.955
  47  1893.834
  48  2016.305
  49  2126.793
  50  1957.728
  51  1822.244
  52  1723.175
  53  1721.686
  54  1769.76
  55  1849.206
  56  1804.279
  57  1779.305
  58  1839.125
  59  1916.213
  60  1753.416
  61  1726.433
  62  1672.993
  63  1714.186
  64  1727.721
  65  1770.026
  66  1809.153
  67  1720.798
  68  1592.073
  69  1486.81
  70  1488.235
  71  1520.291
  72  1468.021
  73  1477.264
  74  1408.123
  75  1413.104
  76  1482.487
  77  1537.398
  78  1552.75
  79  1543.962
  80  1515.226
  81  1550.094
  82  1548.004
  83  1632.75
  84  1595.481
  85  1661.852
  86  1674.499
  87  1627.263
  88  1542.813
  89  1490.673
  90  1386.006
  91  1338.473
  92  1299.057
  93  1427.084
  94  1523.686
  95  1550.894
  96  1513.178
  97  1427.161
  98  1473.043
  99  1416.553
 100  1478.724
 101  1463.833
 102  1529.748
 103  1455.618
 104  1427.681
 105  1479.472
 106  1463.115
 107  1418.311
 108  1374.044
 109  1488.122
 110  1683.078
 111  1550.514
 112  1430.723
 113  1378.253
 114  1373.414
 115  1299.71
 116  1351.803
 117  1534.367
 118  1576.058
 119  1539.215
 120  1416.929
 121  1297.536
 122  1303.195
 123  1237.16
 124  1311.72
 125  1419.92
 126  1542.783
 127  1446.55
 128  1317.57
 129  1259.432
 130  1317.597
 131  1439.696
 132  1484.796
 133  1458.106
 134  1376.38
 135  1422.906
 136  1405.884
 137  1407.111
 138  1325.193
 139  1325.599
 140  1296.838
 141  1381.761
 142  1426.983
 143  1446.083
 144  1444.407
 145  1564.103
 146  1705.822
 147  1727.882
 148  1719.326
 149  1651.928
 150  1649.216
 151  1508.772
 152  1510.804
 153  1394.78
 154  1462.015
 155  1453.213
 156  1526.237
 157  1552.747
 158  1743.028
 159  1816.672
 160  1927.91
 161  1949.738
 162  1831.957
 163  1716.653
 164  1630.288
 165  1690.539
 166  1684.276
 167  1737.235
 168  1760.869
 169  1775.433
 170  1837.738
 171  1937.325
 172  1945.519
 173  1877.219
 174  1805.41
 175  1735.302
 176  1675.327
 177  1693.18
 178  1688.535
 179  1742.535
 180  1809.419
 181  1985.58
 182  1984.942
 183  1994.707
 184  1856.527
 185  1897.955
 186  1933.284
 187  1973.887
 188  2004.359
 189  1971.272
 190  2036.567
 191  1868.484
 192  1706.038
 193  1610.392
 194  1702.863
 195  1794.515
 196  1763.215
 197  1777.252
 198  1829.904
 199  1760.139
 200  1790.362
 201  1756.273
 202  1687.478
 203  1615.938
 204  1520.219
 205  1451.01
 206  1410.657
 207  1444.002
 208  1456.158
 209  1437.264
 210  1331.739
 211  1335.601
 212  1451.075
 213  1574.474
 214  1562.483
 215  1447.33
 216  1330.441
 217  1304.448
 218  1328.703
 219  1377.632
 220  1314.695
 221  1271.057
 222  1186.951
 223  1135.595
 224  1046.613
 225  972.3302
 226  1009.399
 227  1040.612
 228  1093.354
 229  1219.473
 230  1390.244
 231  1463.253
 232  1390.562
 233  1204.622
 234  1185.658
 235  1258.12
 236  1295.47
 237  1245.528
 238  1301.987
 239  1351.387
 240  1365.249
 241  1364.11
 242  1305.308
 243  1251.083
 244  1186.704
 245  1207.613
 246  1251.919
 247  1273.579
 248  1300.062
 249  1439.143
 250  1431.523
 251  1338.48
 252  1223.926
 253  1262.449
 254  1312.156
 255  1174.422
 256  1061.372
 257  1139.889
 258  1227.3
 259  1167.454
 260  1163.921
 261  1251.255
 262  1373.443
 263  1465.536
 264  1542.952
 265  1480.505
 266  1261.791
 267  1155.274
 268  1223.903
 269  1191.401
 270  1132.806
 271  1136.27
 272  1175.098
 273  1179.819
 274  1035.236
 275  1041.762
 276  1081.671
 277  1158.442
 278  1246.117
 279  1326.736
 280  1300.898
 281  1233.51
 282  1135.615
 283  1031.161
 284  1078.304
 285  1068.895
 286  1055.174
 287  1077.193
 288  1154.477
 289  1119.821
 290  1037.126
 291  1089.006
 292  1285.706
 293  1261.98
 294  1170.398
 295  963.4445
 296  963.8428
 297  986.9445
 298  1064.043
 299  1100.9
 300  1156.111
 301  1174.221
 302  1149.139
 303  1166.586
 304  1177.819
 305  1214.756
 306  1250.811
 307  1353.072
 308  1447.907
 309  1487.169
 310  1447.965
 311  1354.521
 312  1311.093
 313  1346.228
 314  1341.368
 315  1382.39
 316  1363.394
 317  1392.102
 318  1521.034
 319  1637.84
 320  1701.688
 321  1627.162
 322  1646.521
 323  1668.227
 324  1737.189
 325  1797.568
 326  1743.33
 327  1717.955
 328  1595.087
 329  1688.165
 330  1748.247
 331  1789.261
 332  1788.652
 333  1844.438
 334  1788.386
 335  1704.15
 336  1702.68
 337  1662.097
 338  1738.021
 339  1698.852
 340  1772.178
 341  1676.493
 342  1591.703
 343  1547.624
 344  1468.807
 345  1529.643
 346  1513.304
 347  1490.056
 348  1427.546
 349  1385.446
 350  1310.539
 351  1307.962
 352  1285.472
 353  1253.056
 354  1300.902
 355  1270.839
 356  1160.582
 357  1049.33
 358  1097.476
 359  1262.859
 360  1334.076
 361  1395.064
 362  1484.26
 363  1458.822
 364  1459.614
 365  1445.397
 366  1414.807
 367  1386.189
 368  1404.109
 369  1425.894
 370  1344.044
 371  1227.978
 372  1210.317
 373  1246.621
 374  1266.789
 375  1350.784
 376  1387.197
 377  1422.943
 378  1555.617
 379  1482.452
 380  1448.097
 381  1129.427
 382  1068.732
 383  1127.532
 384  1222.425
 385  1208.224
 386  1099.537
 387  1032.977
 388  838.9053
 389  880.1162
 390  885.8956
 391  1007.229
 392  1007.581
 393  1111.923
 394  1189.394
 395  1201.921
 396  1093.562
 397  1076.812
 398  1084.464
 399  963.703
 400  905.1785
 401  864.7077
 402  1012.08
 403  1060.414
 404  1152.878
 405  1028.049
 406  1026.64
 407  961.7134
 408  1096.654
 409  1236.169
 410  1282.728
 411  1196.293
 412  1121.779
 413  1299.122
 414  1341.591
 415  1350.16
 416  1236.979
 417  1185.984
 418  1280.238
 419  1337.932
 420  1292.083
 421  1290.152
 422  1349.163
 423  1352.945
 424  1336.289
 425  1391.775
 426  1451.337
 427  1381.499
 428  1266.692
 429  1200.312
 430  1114.961
 431  1078.513
 432  1205.85
 433  1347.433
 434  1491.827
 435  1501.195
 436  1439.471
 437  1332.228
 438  1361.931
 439  1484.293
 440  1528.916
 441  1482.277
 442  1455.915
 443  1475.039
 444  1489.942
 445  1487.091
 446  1483.107
 447  1499.223
 448  1506.323
 449  1460.78
 450  1410.206
 451  1393.317
 452  1469.83
 453  1438.332
 454  1476.689
 455  1533.048
 456  1675.487
 457  1748.692
 458  1678.018
 459  1629.416
 460  1644.169
 461  1672.486
 462  1792.664
 463  1797.246
 464  1805.371
 465  1627.63
 466  1604.503
 467  1618.051
 468  1737.222
 469  1815.294
 470  1782.828
 471  1764.727
 472  1757.591
 473  1852.807
 474  1760.759
 475  1672.325
 476  1674.278
 477  1754.831
 478  1773.907
 479  1730.803
 480  1810.443
 481  1794.051
 482  1643.564
 483  1553.645
 484  1565.202
 485  1657.773
 486  1599.044
 487  1490.213
 488  1448.874
 489  1473.409
 490  1660.893
 491  1678.074
 492  1669.478
 493  1612.035
 494  1555.798
 495  1567.561
 496  1460.596
 497  1392.836
 498  1407.573
 499  1373.372
 500  1371.046
 501  1291.975
 502  1343.997
 503  1389.502
 504  1461.569
 505  1508.786
 506  1484.729
 507  1368.568
 508  1284.566
 509  1311.851
 510  1336.678
 511  1440.818
 512  1470.095
 513  1448.457
 514  1459.648
 515  1474.17
 516  1430.297
 517  1311.219
 518  1318.47
 519  1276.632
 520  1297.453
 521  1253.776
 522  1248.691
 523  1248.406
 524  1089.13
 525  1118.775
 526  1170.599
 527  1182.097
 528  1209.822
 529  1236.047
 530  1238.402
 531  1188.184
 532  1088.28
 533  1064.316
 534  1036.362
 535  1143.178
 536  1197.528
 537  1235.417
 538  1054.971
 539  996.4142
 540  1105.163
 541  1228.369
 542  1276.919
 543  1106.79
 544  1039.507
 545  899.7195
 546  928.2471
 547  975.2746
 548  961.5467
 549  1013.579
 550  1117.003
 551  1182.519
 552  1304.08
 553  1309.398
 554  1256.705
 555  1056.281
 556  992.5119
 557  1162.476
 558  1127.316
 559  1131.668
 560  1120.482
 561  1292.528
 562  1365.601
 563  1414.988
 564  1401.937
 565  1455.927
 566  1455.591
 567  1503.355
 568  1465.595
 569  1486.408
 570  1529.745
 571  1574.668
 572  1554.141
 573  1433.585
 574  1429.489
 575  1468.478
 576  1382.445
 577  1322.139
 578  1262.534
 579  1367.033
 580  1416.502
 581  1430.74
 582  1383.583
 583  1297.05
 584  1454.509
 585  1509.855
 586  1640.259
 587  1645.682
 588  1589.415
 589  1415.157
 590  1327.296
 591  1337.201
 592  1605.344
 593  1737.051
 594  1890.35
 595  1935.308
 596  2088.317
 597  2237.875
 598  2389.266
 599  2526.757
 600  2609.164
 601  2847.912
 602  3030.993
 603  3177.778
 604  3128.115
 605  2975.352
 606  2797.942
 607  2691.205
 608  2511.518
 609  2469.373
 610  2339.504
 611  2308.036
 612  2174.708
 613  2009.092
 614  1898.723
 615  1828.492
 616  1722.495
 617  1720.114
 618  1803.083
 619  1847.009
 620  1761.485
 621  1706.284
 622  1955.501
 623  2116.214
 624  2099.934
 625  1989.758
 626  1904.925
 627  1790.791
 628  1808.809
 629  1829.933
 630  1844.551
 631  1845.097
 632  1866.137
 633  1817.88
 634  1711.339
 635  1655.446
 636  1667.49
 637  1770.971
 638  1748.532
 639  1698.661
 640  1663.988
 641  1587.43
 642  1569.797
 643  1525.895
 644  1505.194
 645  1526.303
 646  1449.741
 647  1422.615
 648  1319.901
 649  1341.31
 650  1258.044
 651  1274.287
 652  1365.845
 653  1503.995
 654  1733.869
 655  1737.042
 656  1669.178
 657  1484.38
 658  1427.57
 659  1430.811
 660  1470.673
 661  1545.379
 662  1598.571
 663  1614.54
 664  1514.19
 665  1485.073
 666  1434.349
 667  1497.798
 668  1646.431
 669  1772.298
 670  1813.611
 671  1724.837
 672  1648.304
 673  1611.016
 674  1639.788
 675  1674.19
 676  1683.737
 677  1599.896
 678  1433.771
 679  1445.843
 680  1440.568
 681  1501.473
 682  1426.399
 683  1405.671
 684  1381.22
 685  1302.349
 686  1299.931
 687  1268.821
 688  1281.495
 689  1251.341
 690  1342.053
 691  1229.73
 692  1260.543
 693  1317.158
 694  1353.199
 695  1196.82
 696  996.0276
 697  1188.096
 698  1246.965
 699  1350.637
 700  1324.027
 701  1389.766
 702  1307.299
 703  1216.32
 704  1153.285
 705  1180.55
 706  1109.97
 707  1123.028
 708  1114.761
 709  1323.553
 710  1365.909
 711  1420.636
 712  1351.633
 713  1390.613
 714  1376.655
 715  1326.364
 716  1284.294
 717  1296.681
 718  1329.93
 719  1335.208
 720  1341.276
 721  1296.158
 722  1339.938
 723  1520.54
 724  1580.155
 725  1596.253
 726  1526.424
 727  1594.925
 728  1595.743
 729  1574.422
 730  1577.667
 731  1555.2
 732  1524.679
 733  1434.12
 734  1502.203
 735  1497.699
 736  1542.533
 737  1611.671
 738  1627.669
 739  1672.9
 740  1691.247
 741  1740.927
 742  1741.668
 743  1740.954
 744  1814.872
 745  1745.337
 746  1822.165
 747  1971.727
 748  2075.181
 749  1994.297
 750  1842.156
 751  1923.043
 752  1985.467
 753  1925.827
 754  1890.887
 755  1924.414
 756  1924.921
 757  1889.767
 758  1913.929
 759  1852.514
 760  1789.873
 761  1648.176
 762  1808.529
 763  1907.246
 764  1985.535
 765  1950.661
 766  1923.972
 767  1794.249
 768  1747.641
 769  1755.645
 770  1821.822
 771  1801.951
 772  1783.219
 773  1781.44
 774  1698.507
 775  1785.486
 776  1755.606
 777  1861.229
 778  1690.474
 779  1619.709
 780  1632.304
 781  1661.616
 782  1729.322
 783  1683.632
 784  1732.768
 785  1601.468
 786  1564.381
 787  1667.264
 788  1698.947
 789  1587.638
 790  1515.46
 791  1607.552
 792  1615.945
 793  1555.962
 794  1515.45
 795  1583.439
 796  1518.806
 797  1486.821
 798  1582.135
 799  1787.363
 800  1718.969
 801  1558.981
 802  1465.685
 803  1494.067
 804  1488.441
 805  1371.19
 806  1445.557
 807  1389.874
 808  1309.476
 809  1277.834
 810  1285.042
 811  1257.023
 812  1065.495
 813  1073.64
 814  1164.339
 815  1201.978
 816  987.9213
 817  881.9855
 818  1002.348
 819  1194.226
 820  1232.774
 821  1141.903
 822  1133.395
 823  1148.271
 824  1146.294
 825  1198.616
 826  1285.841
 827  1215.105
 828  1034.911
 829  926.9031
 830  970.5488
 831  1063.778
 832  1015.144
 833  1110.532
 834  1114.174
 835  1279.279
 836  1318.621
 837  1237.281
 838  1151.241
 839  1163.17
 840  1214.122
 841  1184.643
 842  1154.271
 843  1220.478
 844  1199.265
 845  1113.038
 846  1064.823
 847  1192.537
 848  1168.763
 849  1175.255
 850  1226.544
 851  1310.947
 852  1280.113
 853  1234.543
 854  1212.275
 855  1268.814
 856  1293.006
 857  1351.579
 858  1351.849
 859  1298.132
 860  1312.314
 861  1251.493
 862  1140.009
 863  1038.739
 864  1097.469
 865  1093.002
 866  1082.961
 867  1116.68
 868  1243.28
 869  1239.495
 870  1164.919
 871  1280.838
 872  1228.891
 873  1241.025
 874  1181.658
 875  1236.279
 876  1257.863
 877  1295.732
 878  1173.917
 879  1228.405
 880  1260.693
 881  1314.249
 882  1367.16
 883  1387.999
 884  1383.071
 885  1456.679
 886  1494.473
 887  1516.973
 888  1448.682
 889  1394.145
 890  1386.467
 891  1367.962
 892  1358.464
 893  1392.467
 894  1463.578
 895  1391.245
 896  1372.526
 897  1360.626
 898  1402.515
 899  1518.302
 900  1578.542
 901  1549.143
 902  1496.74
 903  1622.114
 904  1657.937
 905  1711.657
 906  1657.863
 907  1642.317
 908  1568.305
 909  1482.89
 910  1489.445
 911  1488.044
 912  1607.204
 913  1550.859
 914  1536.993
 915  1410.33
 916  1388.946
 917  1291.997
 918  1421.731
 919  1598.07
 920  1697.292
 921  1546.394
 922  1545.793
 923  1648.451
 924  1590.607
 925  1550.109
 926  1406.055
 927  1453.702
 928  1435.179
 929  1481.086
 930  1437.827
 931  1410.522
 932  1454.267
 933  1466.432
 934  1362.558
 935  1237.237
 936  1214.822
 937  1245.969
 938  1193.887
 939  1203.694
 940  1320.08
 941  1381.013
 942  1407.762
 943  1366.054
 944  1376.787
 945  1314.921
 946  1253.614
 947  1274.177
 948  1311.365
 949  1302.991
 950  1244.481
 951  1145.959
 952  1287.796
 953  1290.353
 954  1276.942
 955  1103.405
 956  1076.295
 957  1124.955
 958  1207.506
 959  1212.298
 960  1319.847
 961  1397.105
 962  1380.796
 963  1382.008
 964  1405.15
 965  1469.557
 966  1373.583
 967  1341.712
 968  1367.178
 969  1216.641
 970  1196.781
 971  1160.422
 972  1250.238
 973  1273.66
 974  1245.195
 975  1296.267
 976  1261.71
 977  1176.085
 978  1096.438
 979  1200.967
 980  1313.238
 981  1275.515
 982  1175.42
 983  1022.335
 984  1097.858
 985  1132.706
 986  1174.297
 987  1202.868
 988  1119.684
 989  1054.923
 990  1009.761
 991  948.9659
 992  1006.993
 993  1018.878
 994  1135.578
 995  1106.48
 996  1204.364
 997  1165.541
 998  1106.343
 999  1066.807
1000  1205.534
1001  1455.043
1002  1451.361
1003  1416.226
1004  1330.029
1005  1257.558
1006  1177.686
1007  1185.874
1008  1271.463
1009  1221.821
1010  1275.997
1011  1119.235
1012  1194.214
1013  1190.261
1014  1414.341
1015  1386.478
1016  1331.159
1017  1259.427
1018  1307.317
1019  1346.101
1020  1447.916
1021  1409.289
1022  1382.099
1023  1436.461
