# Input file       =  1207924562.108558_cleaned.dat
# Candidate        =  PSR_0332+5434
# Telescope        =  AR
# Epoch_topo       =  58224.608577645347
# Epoch_bary       =  N/A
# T_sample         =  0.002
# Data Folded      =  7340032
# Data Avg         =  0.288038879061268
# Data StdDev      =  5.24764000549181 
# Profile Bins     =  256
# Profile Avg      =  8258.75792693851 
# Profile StdDev   =  888.572827169596 
# Reduced chi-sqr  =  0.939
# Prob(Noise)      <  0.748   (~0.0 sigma)
# P_topo (ms)      =  714.559259995078  +/- 0.000453
# P'_topo (s/s)    =  -0                +/- 2.39e-10
# P''_topo (s/s^2) =  0                 +/- 1.05e-13
# P_bary (ms)      =  N/A
# P'_bary (s/s)    =  N/A
# P''_bary (s/s^2) =  N/A
# P_orb (s)        =  N/A
# asin(i)/c (s)    =  N/A
# eccentricity     =  N/A
# w (rad)          =  N/A
# T_peri           =  N/A
######################################################
   0  8137.126
   1  8076.022
   2  7829.04
   3  7788.121
   4  7244.036
   5  7647.643
   6  7119.481
   7  7581.08
   8  7486.346
   9  7476.194
  10  8101.597
  11  8487.034
  12  7803.6
  13  7757.915
  14  8047.137
  15  7587.285
  16  8016.142
  17  8036.467
  18  7949.295
  19  8204.432
  20  9476.943
  21  8843.663
  22  8629.108
  23  8169.47
  24  7915.912
  25  7736.64
  26  8058.178
  27  8203.123
  28  8413.442
  29  8209.342
  30  8295.956
  31  7487.368
  32  7843.344
  33  7770.369
  34  8333.395
  35  8829.016
  36  8458.709
  37  8458.918
  38  8504.685
  39  8847.298
  40  8990.716
  41  9137.206
  42  9416.576
  43  8941.504
  44  8569.623
  45  8358.458
  46  8819.483
  47  8637.63
  48  7380.376
  49  7489.002
  50  8471.396
  51  8873.044
  52  8564.074
  53  8577.216
  54  8672.867
  55  7860.845
  56  7989.649
  57  8250.634
  58  8441.941
  59  8556.255
  60  8259.681
  61  7926.542
  62  8238.689
  63  7432.023
  64  8013.582
  65  7968.01
  66  8152.267
  67  8335.66
  68  9057.556
  69  9087.67
  70  8359.925
  71  8363.205
  72  8548.512
  73  8322.028
  74  7913.792
  75  8653.58
  76  8771.285
  77  7459.542
  78  7712.52
  79  7594.957
  80  8240.232
  81  8496.656
  82  8030.522
  83  9471.075
  84  8909.574
  85  8823.643
  86  8538.565
  87  8249.901
  88  7667.087
  89  7327.601
  90  7353.592
  91  6773.616
  92  7273.91
  93  6827.43
  94  7032.058
  95  7346.04
  96  6785.894
  97  7303.505
  98  8032.87
  99  7067.247
 100  7138.007
 101  7705.418
 102  7099.917
 103  7451.395
 104  7583.992
 105  7191.949
 106  7487.507
 107  8191.7
 108  8768.78
 109  7554.672
 110  8405.857
 111  8468.275
 112  8295.594
 113  7552.787
 114  8290.534
 115  7650.094
 116  7968.836
 117  7960.857
 118  8049.251
 119  7695.163
 120  7734.022
 121  8345.668
 122  9145.147
 123  8435.326
 124  7951.724
 125  7700.214
 126  8605.165
 127  8117.447
 128  8029.72
 129  7915.748
 130  8543.216
 131  8942.945
 132  8969.497
 133  9048.022
 134  9074.929
 135  8838.98
 136  7703.103
 137  7428.77
 138  7463.811
 139  6730.016
 140  7781.941
 141  7658.921
 142  8000.229
 143  8275.455
 144  7668.677
 145  8536.368
 146  7627.201
 147  8027.097
 148  9492.356
 149  10459.41
 150  11956.38
 151  12105.34
 152  10264.84
 153  9213.517
 154  8845.115
 155  8702.102
 156  8667.268
 157  8588.532
 158  8823.299
 159  10099.94
 160  9157.144
 161  8946.649
 162  9140.393
 163  10023.52
 164  9274.925
 165  9373.11
 166  8995.441
 167  8377.206
 168  7714.883
 169  8014.992
 170  7964.222
 171  7900.429
 172  7946.646
 173  8152.945
 174  8430.738
 175  8182.052
 176  7333.981
 177  6989.847
 178  7466.635
 179  8283.519
 180  8743.471
 181  7556.033
 182  7922.548
 183  7580.075
 184  7725.377
 185  7288.142
 186  8475.627
 187  7936.165
 188  7697.006
 189  7900.628
 190  8544.54
 191  7797.786
 192  8230.71
 193  8733.203
 194  8421.858
 195  8454.548
 196  8429.4
 197  9090.601
 198  9318.691
 199  9046.356
 200  8895.715
 201  10320.17
 202  9554.428
 203  8672.921
 204  9257.248
 205  9147.265
 206  8763.185
 207  7706.865
 208  7870.581
 209  8477.795
 210  8554.751
 211  8531.858
 212  8737.531
 213  9167.521
 214  8875.789
 215  8215.159
 216  9066.779
 217  9218.073
 218  8334.657
 219  7658.107
 220  7682.6
 221  6735.21
 222  7230.965
 223  7390.512
 224  7728.737
 225  7612.739
 226  7978.903
 227  8447.006
 228  8125.367
 229  8108.126
 230  8540.172
 231  8741.004
 232  8529.14
 233  8791.768
 234  9181.474
 235  8732.081
 236  9067.322
 237  8285.789
 238  8452.182
 239  8203.572
 240  8359.328
 241  8281.803
 242  9209.862
 243  8562.999
 244  7769.399
 245  7952.052
 246  7599.436
 247  7741.807
 248  7828.42
 249  8073.196
 250  8789.071
 251  7590.107
 252  8097.948
 253  7646.965
 254  7619.102
 255  7357.969
