# Input file       =  1207823475.107672_cleaned.dat
# Candidate        =  PSR_0332+5434
# Telescope        =  AR
# Epoch_topo       =  58223.438589209167
# Epoch_bary       =  N/A
# T_sample         =  0.002
# Data Folded      =  7340032
# Data Avg         =  0.301760340717529
# Data StdDev      =  5.4362127401738  
# Profile Bins     =  256
# Profile Avg      =  8652.00541882443 
# Profile StdDev   =  920.503487010615 
# Reduced chi-sqr  =  1.793
# Prob(Noise)      <  1.14e-13   (~7.3 sigma)
# P_topo (ms)      =  714.559832816699  +/- 0.000688
# P'_topo (s/s)    =  -0                +/- 3.63e-10
# P''_topo (s/s^2) =  0                 +/- 1.6e-13
# P_bary (ms)      =  N/A
# P'_bary (s/s)    =  N/A
# P''_bary (s/s^2) =  N/A
# P_orb (s)        =  N/A
# asin(i)/c (s)    =  N/A
# eccentricity     =  N/A
# w (rad)          =  N/A
# T_peri           =  N/A
######################################################
   0  9102.733
   1  8674.268
   2  8475.351
   3  8534.196
   4  8728.688
   5  9177.064
   6  8927.029
   7  8355.042
   8  8383.174
   9  8659.949
  10  8559.039
  11  8668.205
  12  8402.221
  13  8614.444
  14  8243.397
  15  8209.298
  16  8122.962
  17  9034.062
  18  8930.142
  19  8747.595
  20  9043.972
  21  8876.077
  22  8894.418
  23  9166.28
  24  9128.613
  25  8818.861
  26  8519.239
  27  8758.645
  28  9133.279
  29  9281.789
  30  9409.808
  31  9515.379
  32  9046.938
  33  8946.369
  34  9316.928
  35  9324.73
  36  9212.21
  37  9698.084
  38  10283.26
  39  9905.43
  40  9744.296
  41  9386.829
  42  9422.247
  43  9156.155
  44  9638.743
  45  9304.057
  46  9214.224
  47  9805.877
  48  9752.021
  49  9281.103
  50  8583.581
  51  9498.951
  52  8831.244
  53  9204.081
  54  10111.41
  55  10443.49
  56  9189.591
  57  8728.406
  58  9916.269
  59  9456.572
  60  9298.625
  61  8733.612
  62  8534.45
  63  9013.437
  64  9120.063
  65  9275.873
  66  8886.065
  67  9277.944
  68  8727.323
  69  8751.726
  70  8830.129
  71  9895.239
  72  9512.741
  73  9159.544
  74  9024.544
  75  9458.235
  76  8995.571
  77  9216.769
  78  9781.748
  79  9975.636
  80  9638.814
  81  9501.234
  82  9888.119
  83  9686.499
  84  10013.83
  85  9931.558
  86  9803.739
  87  9658.5
  88  9276.655
  89  9301.479
  90  9323.744
  91  8821.254
  92  8178.794
  93  9083.655
  94  8584.345
  95  8435.375
  96  8762.368
  97  8112.614
  98  8495.626
  99  8389.946
 100  8042.58
 101  8055.959
 102  8321.387
 103  8430.016
 104  8376.924
 105  7677.293
 106  8313.059
 107  7952.793
 108  8742.972
 109  8797.688
 110  9127.449
 111  9046.007
 112  9076.058
 113  9583.441
 114  9892.522
 115  9436.679
 116  8930.874
 117  8344.271
 118  8832.022
 119  8537.185
 120  7689.516
 121  8741.059
 122  8348.769
 123  8394.854
 124  7833.864
 125  7960.546
 126  8151.385
 127  8667.178
 128  8505.592
 129  9081.629
 130  9375.845
 131  9397.658
 132  9341.423
 133  9142.24
 134  8678.521
 135  8864.651
 136  8375.596
 137  8067.259
 138  8173.692
 139  8145.347
 140  8381.275
 141  9026.308
 142  8492.785
 143  8223.193
 144  8968.371
 145  9645.411
 146  9441.894
 147  10223.42
 148  10167.3
 149  12297.93
 150  14842.49
 151  14855.51
 152  11521.72
 153  9290.881
 154  9492.799
 155  9154.189
 156  8602.973
 157  9386.246
 158  9646.032
 159  9369.086
 160  8305.257
 161  8190.415
 162  8074.266
 163  8005.5
 164  7539.575
 165  8116.024
 166  8215.701
 167  7775.007
 168  7288.015
 169  7823.76
 170  7824.649
 171  7101.127
 172  6941.979
 173  7722.104
 174  8166.306
 175  7356.173
 176  7231.008
 177  7673.777
 178  7763.468
 179  6782.723
 180  6273.847
 181  7317.681
 182  6976.445
 183  6553.048
 184  7162.05
 185  7629.207
 186  7553.978
 187  7682.58
 188  6927.404
 189  8074.259
 190  7484.332
 191  6890.147
 192  6321.311
 193  7053.428
 194  7400.312
 195  7399.517
 196  8452.218
 197  8783.344
 198  8498.57
 199  8665.998
 200  9243.728
 201  8307.394
 202  8750.245
 203  7981.626
 204  7337.681
 205  7401.782
 206  7589.974
 207  7222.436
 208  7972.784
 209  8100.721
 210  7701.688
 211  7161.07
 212  7332.289
 213  6822.258
 214  7531.592
 215  7294.947
 216  7007.241
 217  7101.936
 218  7506.678
 219  6815.358
 220  6809.925
 221  6607.23
 222  7328.605
 223  7552.482
 224  7522.477
 225  6648.9
 226  7701.271
 227  8275.341
 228  7454.822
 229  8191.087
 230  8589.206
 231  8658.083
 232  9124.344
 233  10016.2
 234  9859.322
 235  10042.26
 236  10044.41
 237  9085.228
 238  9557.657
 239  9284.175
 240  9232.009
 241  9115.374
 242  8879.141
 243  7988.339
 244  7444.676
 245  7874.989
 246  8316.935
 247  7993.29
 248  7769.81
 249  7777.436
 250  8510.896
 251  8498.678
 252  8230.992
 253  8493.808
 254  8914.992
 255  8999.7
