# Input file       =  1207894977.102396_cleaned.dat
# Candidate        =  PSR_0332+5434
# Telescope        =  AR
# Epoch_topo       =  58224.266158592545
# Epoch_bary       =  N/A
# T_sample         =  0.002
# Data Folded      =  7208960
# Data Avg         =  0.237816566296598
# Data StdDev      =  5.67575929581912 
# Profile Bins     =  1024
# Profile Avg      =  1674.36181366293 
# Profile StdDev   =  476.222925563126 
# Reduced chi-sqr  =  1.758
# Prob(Noise)      <  1.97e-45   (~14.1 sigma)
# P_topo (ms)      =  714.5591720324    +/- 1.98e-05
# P'_topo (s/s)    =  -0                +/- 1.06e-11
# P''_topo (s/s^2) =  0                 +/- 4.77e-15
# P_bary (ms)      =  N/A
# P'_bary (s/s)    =  N/A
# P''_bary (s/s^2) =  N/A
# P_orb (s)        =  N/A
# asin(i)/c (s)    =  N/A
# eccentricity     =  N/A
# w (rad)          =  N/A
# T_peri           =  N/A
######################################################
   0  1525.151
   1  1278.748
   2  1188.783
   3  1149.244
   4  1139.68
   5  1398.263
   6  1733.192
   7  1972.562
   8  1952.638
   9  1943.138
  10  1914.023
  11  1835.321
  12  1840.807
  13  1926.307
  14  1971.05
  15  1958.847
  16  1711.581
  17  1512.148
  18  1262.838
  19  1224.943
  20  1316.153
  21  1580.025
  22  1764.806
  23  1866.987
  24  1997.954
  25  2040.584
  26  1869.982
  27  1568.401
  28  1454.943
  29  1413.673
  30  1475.345
  31  1524.456
  32  1412.119
  33  1366.08
  34  1169.604
  35  1260.261
  36  1189.437
  37  1224.946
  38  1249.505
  39  1556.927
  40  1899.677
  41  2102.286
  42  1963.359
  43  1880.368
  44  1783.621
  45  1816.085
  46  1761.077
  47  1905.862
  48  1990.439
  49  1900.585
  50  1751.493
  51  1452.774
  52  1413.673
  53  1414.754
  54  1639.898
  55  1788.077
  56  2038.082
  57  2318.451
  58  2349.096
  59  2043.63
  60  1729.789
  61  1589.74
  62  1637.443
  63  1592.484
  64  1427.433
  65  1461.936
  66  1440.52
  67  1292.39
  68  995.9062
  69  841.3615
  70  1057.868
  71  1380.647
  72  1713.651
  73  1833.146
  74  1887.967
  75  1960.677
  76  2051.653
  77  2067.526
  78  1985.155
  79  1911.21
  80  2086.349
  81  2144.083
  82  1900.756
  83  1711.699
  84  1478.506
  85  1506.765
  86  1352.245
  87  1371.368
  88  1604.803
  89  1757.926
  90  1906.653
  91  1925.723
  92  1925.722
  93  1845.246
  94  1809.793
  95  2099.819
  96  2058.805
  97  1825.263
  98  1661.94
  99  1544.353
 100  1187.73
 101  861.3117
 102  900.0151
 103  1157.867
 104  1146.963
 105  1388.623
 106  1634.121
 107  1721.451
 108  1803.692
 109  1938.85
 110  2144.104
 111  2143.806
 112  2274.12
 113  2307.794
 114  2163.759
 115  1965.759
 116  1893.5
 117  1667.263
 118  1398.663
 119  1266.5
 120  1353.604
 121  1459.041
 122  1543.975
 123  1917.97
 124  2217.988
 125  2177.504
 126  1995.429
 127  1849.987
 128  2016.401
 129  1941.728
 130  1842.805
 131  1809.577
 132  1637.264
 133  1296.42
 134  910.2384
 135  941.8422
 136  1231.199
 137  1354.258
 138  1514.072
 139  1675.17
 140  1899.525
 141  2114.867
 142  2079.062
 143  2098.562
 144  2115.823
 145  2288.333
 146  2381.967
 147  2194.468
 148  2045.547
 149  1894.427
 150  1698.671
 151  1620.474
 152  1435.365
 153  1643.889
 154  1801.934
 155  1899.705
 156  1857.904
 157  1854.052
 158  2073.525
 159  2038.621
 160  1831.388
 161  1642.041
 162  1555.64
 163  1786.77
 164  1841.844
 165  1573.77
 166  1320.701
 167  1058.706
 168  1146.257
 169  1066.606
 170  1096.466
 171  1271.469
 172  1478.312
 173  1691.507
 174  1728.345
 175  1683.899
 176  1722.734
 177  1835.161
 178  2113.283
 179  2101.518
 180  1934.767
 181  1729.198
 182  1498.806
 183  1368.9
 184  1331.98
 185  1393.048
 186  1422.58
 187  1498.234
 188  1668.245
 189  1872.395
 190  1981.165
 191  1913.325
 192  1786.874
 193  1728.734
 194  1743.068
 195  1596.276
 196  1456.816
 197  1351.97
 198  1314.213
 199  1162.948
 200  1094.34
 201  1133.084
 202  1198.207
 203  1226.92
 204  1409.62
 205  1718.588
 206  1944.256
 207  1902.311
 208  1922.588
 209  1990.674
 210  1875.519
 211  1806.007
 212  1795.929
 213  1972.83
 214  1917.355
 215  1786.336
 216  1556.216
 217  1224.143
 218  1203.722
 219  1425.324
 220  1676.076
 221  1823.847
 222  1882.213
 223  2080.229
 224  1976.26
 225  1861.975
 226  1656.843
 227  1702.159
 228  1859.516
 229  1964.065
 230  1775.833
 231  1539.497
 232  1494.894
 233  1346.173
 234  1248.942
 235  1153.068
 236  1250.431
 237  1486.829
 238  1695.833
 239  1963.597
 240  1892.053
 241  1949.378
 242  1946.472
 243  2100.525
 244  1987.345
 245  1995.076
 246  2071.302
 247  1865.02
 248  1445.08
 249  1184.925
 250  1249.69
 251  1324.403
 252  1298.258
 253  1555.434
 254  1793.613
 255  1916.924
 256  2051.29
 257  2131.137
 258  2014.387
 259  1860.519
 260  1851.673
 261  2082.629
 262  1760.974
 263  1462.924
 264  1309.692
 265  1173.789
 266  922.6531
 267  622.4202
 268  791.1599
 269  934.8424
 270  1325.775
 271  1702.087
 272  1946.642
 273  1813.787
 274  1814.464
 275  1995.225
 276  2085.369
 277  2060.938
 278  2151.903
 279  2297.394
 280  2193.543
 281  1948.004
 282  1622.463
 283  1418.949
 284  1291.45
 285  1209.817
 286  1404.857
 287  1684.216
 288  1863.324
 289  2012.575
 290  1995.771
 291  2005.04
 292  1858.107
 293  1892.313
 294  1861.38
 295  1818.891
 296  1899.937
 297  1959.337
 298  1702.369
 299  1277.723
 300  1110.011
 301  1190.438
 302  1128.297
 303  1312.744
 304  1751.386
 305  1901.782
 306  1906.492
 307  1928.505
 308  2134.021
 309  2095.712
 310  2088.743
 311  2333.887
 312  2232.501
 313  1984.226
 314  1814.984
 315  1831.689
 316  1728.894
 317  1453.766
 318  1303.649
 319  1368.707
 320  1477.735
 321  1612.238
 322  1851.798
 323  1837.12
 324  1817.756
 325  1750.317
 326  1968.816
 327  1880.447
 328  1821.651
 329  1842.739
 330  1878.999
 331  1634.938
 332  1208.094
 333  1020.073
 334  1016.82
 335  1203.678
 336  1362.728
 337  1638.753
 338  1784.897
 339  1921.228
 340  1876.149
 341  1888.622
 342  1809.577
 343  2014.59
 344  2078.805
 345  2008.093
 346  1896.603
 347  1805.549
 348  1684.369
 349  1500.214
 350  1304.884
 351  1438.115
 352  1715.491
 353  2040.286
 354  2064.882
 355  2019.211
 356  2082.152
 357  2035.065
 358  1824.591
 359  1680.213
 360  1676.572
 361  1719.69
 362  1672.164
 363  1598.35
 364  1348.273
 365  1073.972
 366  1002.879
 367  1159.397
 368  1311.38
 369  1424.389
 370  1620.81
 371  1946.179
 372  1907.037
 373  1886.102
 374  1962.833
 375  2035.041
 376  2056.826
 377  1886.248
 378  1937.685
 379  1952.911
 380  1940.395
 381  1784.567
 382  1572.81
 383  1485.985
 384  1674.718
 385  1998.504
 386  2169.412
 387  2208.018
 388  2132.323
 389  2095.019
 390  1971.583
 391  2019.132
 392  1797.682
 393  1604.271
 394  1517.842
 395  1631.68
 396  1494.75
 397  1438.732
 398  1366.736
 399  1368.404
 400  1237.557
 401  1259.566
 402  1376.116
 403  1605.82
 404  1889.161
 405  1928.812
 406  1983.744
 407  2130.783
 408  2325.258
 409  2245.553
 410  2130.594
 411  2208.255
 412  2145.295
 413  1830.5
 414  1465.401
 415  1137.82
 416  1234.059
 417  1320.615
 418  1545.001
 419  1721.581
 420  1853.042
 421  2078.141
 422  2232.356
 423  2252.279
 424  2201.483
 425  1969.749
 426  2035.485
 427  1896.939
 428  1670.962
 429  1461.285
 430  1321.837
 431  1165.633
 432  970.4531
 433  967.2231
 434  1217.695
 435  1519.946
 436  1752.782
 437  1908.064
 438  1901.371
 439  1903.527
 440  1901.553
 441  2085.248
 442  2108.343
 443  2091.369
 444  2235.093
 445  2085.339
 446  1792.466
 447  1324.035
 448  1196.754
 449  1268.935
 450  1262.464
 451  1279.446
 452  1439.607
 453  1508.82
 454  1756.234
 455  1817.177
 456  2000.304
 457  1846.353
 458  1681.17
 459  1746.669
 460  1754.131
 461  1578.951
 462  1311.047
 463  1297.621
 464  1032.118
 465  904.8711
 466  872.5148
 467  1110.747
 468  1104.025
 469  1374.757
 470  1765.827
 471  1973.861
 472  1913.583
 473  1955.164
 474  2027.939
 475  1864.026
 476  1857.356
 477  2043.744
 478  2016.607
 479  1812.541
 480  1520.912
 481  1580.573
 482  1548.72
 483  1470.657
 484  1553.754
 485  1683.608
 486  1951.976
 487  2041.574
 488  2017.07
 489  1895.398
 490  1789.462
 491  1818.403
 492  1855.95
 493  1734.103
 494  1557.175
 495  1422.305
 496  1328.076
 497  1213.217
 498  943.9635
 499  997.7458
 500  1089.453
 501  1324.88
 502  1572.536
 503  1870.829
 504  1965.315
 505  1816.545
 506  1762.322
 507  1774.87
 508  1726.672
 509  1653.086
 510  1810.682
 511  1811.798
 512  1686.518
 513  1506.683
 514  1702.17
 515  1702.1
 516  1670.347
 517  1624.143
 518  1819.111
 519  1856.886
 520  1761.946
 521  1743.277
 522  1817.073
 523  1714.075
 524  1770.338
 525  1776.211
 526  1860.525
 527  1657.923
 528  1706.886
 529  1657.815
 530  1446.634
 531  1139.397
 532  1083.024
 533  1249.573
 534  1324.328
 535  1496.134
 536  1682.499
 537  1932.144
 538  1904.54
 539  1869.219
 540  1778.139
 541  1933.813
 542  1939.989
 543  1909.449
 544  1821.267
 545  1628.925
 546  1651.13
 547  1559.927
 548  1472.365
 549  1421.701
 550  1548.972
 551  1775.961
 552  1947.713
 553  1982.651
 554  2012.793
 555  1958.7
 556  1998.147
 557  2050.865
 558  1922.867
 559  1876.497
 560  1647.847
 561  1522.913
 562  1362.097
 563  1219.846
 564  1091.125
 565  1083.036
 566  1315.479
 567  1410.478
 568  1628.374
 569  1903.151
 570  2163.26
 571  2171.778
 572  2114.278
 573  2207.439
 574  2161.084
 575  2053.326
 576  1946.688
 577  1935.05
 578  1754.773
 579  1510.099
 580  1374.643
 581  1267.199
 582  1333.055
 583  1491.418
 584  1785.395
 585  2060.738
 586  2192.181
 587  2146.441
 588  2022.247
 589  2039.216
 590  2115.212
 591  2011.051
 592  2031.07
 593  1989.072
 594  1886.517
 595  1519.158
 596  1300.182
 597  1190.02
 598  1248.09
 599  1670.077
 600  2378.975
 601  2873.236
 602  3131.405
 603  3145.796
 604  3127.523
 605  2858.783
 606  2877.451
 607  2924.635
 608  2677.165
 609  2375.438
 610  2171.919
 611  2107.81
 612  1710.102
 613  1356.57
 614  1122.865
 615  1167.483
 616  1248.441
 617  1625.287
 618  1883.289
 619  1946.96
 620  2029.052
 621  2070.723
 622  2103.62
 623  1766.866
 624  1782.247
 625  1875.399
 626  1749.522
 627  1444.242
 628  1303.006
 629  1261.911
 630  1049.415
 631  1026.56
 632  1174.978
 633  1368.944
 634  1343.749
 635  1616.24
 636  1774.82
 637  1822.26
 638  1853.709
 639  2066.179
 640  2098.979
 641  2104.606
 642  2063.949
 643  1978.227
 644  1808.226
 645  1697.164
 646  1472.975
 647  1323.986
 648  1286.163
 649  1428.976
 650  1608.118
 651  1901.912
 652  2042.334
 653  2101.157
 654  1923.777
 655  1936.733
 656  1759.024
 657  1754.116
 658  1691.299
 659  1678.289
 660  1487.328
 661  1505.846
 662  1506.095
 663  1262.876
 664  1025.721
 665  1087.387
 666  1237.039
 667  1489.392
 668  1779.805
 669  2105.685
 670  2126.986
 671  2055.642
 672  2030.503
 673  1942.461
 674  1949.221
 675  1842.371
 676  1968.481
 677  1825.24
 678  1601.692
 679  1367.046
 680  1267.911
 681  1363.481
 682  1405.421
 683  1763.968
 684  1946.546
 685  1948.578
 686  1755.625
 687  1789.874
 688  1764.949
 689  1730.26
 690  1590.08
 691  1547.466
 692  1593.399
 693  1571.326
 694  1550.891
 695  1320.916
 696  1111.702
 697  969.9899
 698  1170.823
 699  1509.841
 700  1678.763
 701  1677.075
 702  1652.847
 703  1736.136
 704  1757.896
 705  1776.676
 706  1905.862
 707  1998.978
 708  2003.705
 709  1870.494
 710  1761.375
 711  1621.023
 712  1604.281
 713  1540.631
 714  1493.625
 715  1445.532
 716  1523.167
 717  1773.01
 718  1957.121
 719  2048.218
 720  2033.315
 721  1992.11
 722  1980.4
 723  1904.614
 724  1906.719
 725  1677.335
 726  1450.274
 727  1309.684
 728  1256.976
 729  1163.453
 730  1182.472
 731  1514.383
 732  1705.567
 733  1785.902
 734  1831.207
 735  2017.472
 736  2094.729
 737  2087.744
 738  1998.646
 739  1909.459
 740  1804.102
 741  1788.783
 742  1856.077
 743  1627.349
 744  1478.69
 745  1398.036
 746  1448.289
 747  1430.286
 748  1455.865
 749  1714.072
 750  1957.313
 751  2085.979
 752  2052.5
 753  1959.823
 754  1894.669
 755  1863.279
 756  1633.913
 757  1452.427
 758  1293.915
 759  1395.651
 760  1355.08
 761  1177.869
 762  912.045
 763  676.574
 764  879.287
 765  1336.508
 766  1631.103
 767  1760.1
 768  1859.082
 769  1893.686
 770  1798.907
 771  1819.348
 772  2134.925
 773  2125.407
 774  1966.749
 775  1731.999
 776  1669.925
 777  1489.716
 778  1400.829
 779  1292.94
 780  1339.999
 781  1309.161
 782  1556.467
 783  1887.811
 784  2144.333
 785  2129.697
 786  2018.415
 787  2016.856
 788  1974.213
 789  1918.648
 790  1770.711
 791  1721.709
 792  1475.026
 793  1220.431
 794  993.6662
 795  832.2596
 796  675.7323
 797  668.7527
 798  1031.333
 799  1420.186
 800  1724.745
 801  1884.439
 802  1925.866
 803  1708.672
 804  1678.698
 805  1872.714
 806  2013.407
 807  1941.903
 808  1724.583
 809  1604.955
 810  1489.126
 811  1399.234
 812  1293.972
 813  1255.265
 814  1348.315
 815  1510.634
 816  1652.506
 817  1784.93
 818  1763.296
 819  1673.336
 820  1669.644
 821  1671.388
 822  1733.13
 823  1716.52
 824  1584.886
 825  1334.849
 826  1220.756
 827  1250.078
 828  1016.357
 829  911.5233
 830  921.2554
 831  1240.833
 832  1282.823
 833  1452.342
 834  1526.062
 835  1703.86
 836  1717.177
 837  1892.063
 838  1966.456
 839  1961.842
 840  1891.558
 841  1903.558
 842  1785.001
 843  1652.056
 844  1395.46
 845  1110.482
 846  990.7882
 847  1243.399
 848  1489.247
 849  1612.466
 850  1626.659
 851  1688.517
 852  1785.158
 853  1732.297
 854  1766.834
 855  1630.539
 856  1657.597
 857  1557.388
 858  1496.606
 859  1444.076
 860  1271.785
 861  1081.391
 862  827.2233
 863  939.5801
 864  1314.89
 865  1641.994
 866  1781.949
 867  1809.406
 868  1821.478
 869  1786.76
 870  1719.632
 871  1745.293
 872  1915.746
 873  1893.765
 874  1991.199
 875  1898.317
 876  1797.275
 877  1369.297
 878  1303.245
 879  1524.661
 880  1769.321
 881  1783.474
 882  1769.783
 883  1793.989
 884  1768.046
 885  1718.568
 886  1697.157
 887  1799.786
 888  1642.006
 889  1643.223
 890  1621.441
 891  1510.162
 892  1356.401
 893  1223.054
 894  1269.134
 895  1249.451
 896  1400.427
 897  1605.755
 898  1840.68
 899  1964.314
 900  2157.21
 901  2228.562
 902  2130.605
 903  1868.398
 904  1738.187
 905  1968.016
 906  1955.134
 907  1763.021
 908  1473.296
 909  1305.96
 910  1231.026
 911  1359.24
 912  1525.868
 913  1763.328
 914  1767.301
 915  1862.036
 916  1983.407
 917  2034.154
 918  2039.049
 919  1897.975
 920  1973.227
 921  1755.676
 922  1666.053
 923  1424.492
 924  1472.919
 925  1108.686
 926  955.256
 927  845.1254
 928  935.1859
 929  970.2766
 930  1216.524
 931  1619.453
 932  1857.194
 933  2042.204
 934  2019.887
 935  2052.187
 936  1763.035
 937  1747.536
 938  1938.793
 939  2046.498
 940  1801.708
 941  1693.878
 942  1657.843
 943  1569.441
 944  1219.171
 945  1059.288
 946  1169.062
 947  1427.044
 948  1621.815
 949  1839.122
 950  1891.692
 951  1820.378
 952  1763.725
 953  1837.817
 954  1879.726
 955  1762.758
 956  1832.903
 957  1847.415
 958  1585.443
 959  1187.613
 960  918.135
 961  826.937
 962  661.3921
 963  984.2503
 964  1296.885
 965  1516.632
 966  1623.91
 967  1909.959
 968  2083.692
 969  2040.938
 970  2184.312
 971  2369.938
 972  2283.834
 973  1893.128
 974  1691.149
 975  1567.363
 976  1458.634
 977  1285.126
 978  1281.87
 979  1354.884
 980  1442.548
 981  1590.046
 982  1687.959
 983  1719.754
 984  1688.025
 985  1742.688
 986  1770.984
 987  1671.168
 988  1662.42
 989  1780.371
 990  1599.457
 991  1258.534
 992  1126.146
 993  1180.833
 994  1110.914
 995  883.9307
 996  1057.347
 997  1304.658
 998  1416.8
 999  1588.239
1000  1493.62
1001  1535.205
1002  1571.364
1003  1811.358
1004  1907.458
1005  1883.933
1006  1970.237
1007  1923.22
1008  1779.276
1009  1643.902
1010  1422.353
1011  1330.192
1012  1433.196
1013  1594.106
1014  1737.166
1015  1859.926
1016  1967.143
1017  1986.649
1018  1770.885
1019  1722.341
1020  1682.529
1021  1491.674
1022  1558.966
1023  1512.889
