# Input file       =  1207981188.104769_cleaned.dat
# Candidate        =  PSR_0332+5434
# Telescope        =  AR
# Epoch_topo       =  58225.263971120010
# Epoch_bary       =  N/A
# T_sample         =  0.002
# Data Folded      =  7143424
# Data Avg         =  0.222672970150597
# Data StdDev      =  5.86811836775249 
# Profile Bins     =  1024
# Profile Avg      =  1553.40306883645 
# Profile StdDev   =  490.119635119231 
# Reduced chi-sqr  =  1.031
# Prob(Noise)      <  0.238   (~0.7 sigma)
# P_topo (ms)      =  714.558387044901  +/- 4.94e-05
# P'_topo (s/s)    =  -0                +/- 2.68e-11
# P''_topo (s/s^2) =  0                 +/- 1.21e-14
# P_bary (ms)      =  N/A
# P'_bary (s/s)    =  N/A
# P''_bary (s/s^2) =  N/A
# P_orb (s)        =  N/A
# asin(i)/c (s)    =  N/A
# eccentricity     =  N/A
# w (rad)          =  N/A
# T_peri           =  N/A
######################################################
   0  1912.538
   1  1551.197
   2  1211.907
   3  1271.686
   4  1362.87
   5  1452.129
   6  1201.876
   7  941.2717
   8  813.7651
   9  1002.751
  10  1253.866
  11  1404.467
  12  1324.333
  13  1397.036
  14  1384.093
  15  1378.249
  16  1313.721
  17  1364.237
  18  1571.326
  19  1606.823
  20  1732.812
  21  1891.209
  22  1950.477
  23  1742.955
  24  1579.307
  25  1633.482
  26  1694.374
  27  1520.427
  28  1613.824
  29  1691.877
  30  1685.582
  31  1589.467
  32  1638.174
  33  1777.367
  34  1604.252
  35  1546.038
  36  1680.714
  37  1651.056
  38  1418.662
  39  1269.717
  40  1334.638
  41  1410.966
  42  1157.739
  43  1164.358
  44  1247.024
  45  1357.027
  46  1375.311
  47  1320.568
  48  1321.172
  49  1262.879
  50  1327.899
  51  1510.876
  52  1577.712
  53  1778.699
  54  1967.971
  55  2093.96
  56  1914.06
  57  1735.33
  58  1838.928
  59  2004.749
  60  1999.438
  61  1873.607
  62  1752.304
  63  1628.023
  64  1495.464
  65  1368.09
  66  1305.092
  67  1208.815
  68  1396.123
  69  1597.565
  70  1572.236
  71  1421.821
  72  1466.172
  73  1689.613
  74  1704.933
  75  1426.83
  76  1354.941
  77  1292.463
  78  1372.77
  79  1318.928
  80  1313.31
  81  1322.54
  82  1322.722
  83  1382.823
  84  1470.185
  85  1585.419
  86  1776.817
  87  1912.886
  88  1950.724
  89  1915.159
  90  1994.891
  91  2030.268
  92  2035.756
  93  1797.484
  94  1656.075
  95  1519.55
  96  1612.549
  97  1515.961
  98  1403.622
  99  1190.178
 100  1288.509
 101  1477.679
 102  1589.026
 103  1429.852
 104  1411.813
 105  1474.671
 106  1607.796
 107  1404.227
 108  1171.643
 109  1224.346
 110  1343.485
 111  1356.563
 112  1209.572
 113  1176.694
 114  1124.26
 115  1121.518
 116  1278.049
 117  1461.968
 118  1682.871
 119  1851.705
 120  2007.391
 121  2171.632
 122  2018.326
 123  2119.028
 124  2090.271
 125  2074.27
 126  1857.917
 127  1855.791
 128  1989.149
 129  1979.174
 130  1772.661
 131  1500.209
 132  1341.123
 133  1264.395
 134  1329.381
 135  1330.733
 136  1351.608
 137  1188.648
 138  1236.407
 139  1215.81
 140  1045.848
 141  929.1623
 142  1003.454
 143  1409.836
 144  1556.16
 145  1500.542
 146  1299.572
 147  1212.982
 148  1321.699
 149  1464.702
 150  1548.62
 151  1659.881
 152  1771.446
 153  1811.651
 154  1707.678
 155  1519.381
 156  1482.35
 157  1533.755
 158  1768.05
 159  1850.776
 160  1820.835
 161  1957.619
 162  1874.792
 163  1697.319
 164  1532.919
 165  1461.548
 166  1416.139
 167  1355.317
 168  1363.943
 169  1537.511
 170  1434.87
 171  1327.602
 172  1127.849
 173  1004.391
 174  1093.013
 175  1095.83
 176  1209.147
 177  1205.654
 178  1220.117
 179  1269.455
 180  1291.51
 181  1443.147
 182  1483.641
 183  1653.051
 184  1796.713
 185  1851.057
 186  1821.51
 187  1757.265
 188  1739.05
 189  1805.836
 190  1778.808
 191  1767.11
 192  1753.213
 193  1746.516
 194  1760.322
 195  1636.677
 196  1561.59
 197  1526.16
 198  1687.028
 199  1686.504
 200  1483.307
 201  1340.738
 202  1483.641
 203  1642.27
 204  1437.004
 205  1264.882
 206  1242.099
 207  1253.521
 208  1244.03
 209  1196.279
 210  1120.07
 211  1082.727
 212  1140
 213  1288.278
 214  1300.389
 215  1193.7
 216  1344.214
 217  1514.515
 218  1578.647
 219  1657.883
 220  1853.319
 221  2048.329
 222  1924.978
 223  1794.722
 224  1894.812
 225  1899.159
 226  1804.882
 227  1700.228
 228  1595.264
 229  1484.595
 230  1386.47
 231  1421.863
 232  1501.643
 233  1414.226
 234  1561.604
 235  1565.841
 236  1534.029
 237  1258.77
 238  1273.308
 239  1274.453
 240  1190.388
 241  1076.375
 242  1155.407
 243  1226.052
 244  1338.808
 245  1504.926
 246  1501.425
 247  1400.211
 248  1483.208
 249  1770.736
 250  1973.459
 251  1913.439
 252  1930.501
 253  1890.469
 254  1917.324
 255  1807.323
 256  1758.738
 257  1807.143
 258  1834.369
 259  1790.729
 260  1642.116
 261  1638.601
 262  1670.561
 263  1639.038
 264  1477.85
 265  1346.303
 266  1303.244
 267  1488.067
 268  1600.836
 269  1586.428
 270  1440.182
 271  1395.781
 272  1317.405
 273  1176.08
 274  1016.932
 275  998.5421
 276  1138.492
 277  1251.4
 278  1277.291
 279  1202.451
 280  1162.302
 281  1285.123
 282  1510.5
 283  1572.362
 284  1557.968
 285  1529.801
 286  1526.128
 287  1620.372
 288  1673.288
 289  1913.79
 290  2024.358
 291  2062.148
 292  1881.117
 293  1748.844
 294  1689.537
 295  1669.132
 296  1421.777
 297  1360.585
 298  1219.852
 299  1365.985
 300  1380.549
 301  1401.375
 302  1157.77
 303  947.826
 304  1083.265
 305  1209.234
 306  1213.657
 307  1075.655
 308  1160.903
 309  1407.786
 310  1444.567
 311  1436.513
 312  1407.425
 313  1537.621
 314  1646.774
 315  1678.879
 316  1654.872
 317  1630.095
 318  1745.784
 319  1905.439
 320  1915.656
 321  1838.066
 322  1731.426
 323  1803.911
 324  1855.348
 325  1675.325
 326  1694.52
 327  1842.238
 328  1894.983
 329  1614.455
 330  1553.532
 331  1647.764
 332  1627.47
 333  1513.985
 334  1501.282
 335  1455.875
 336  1401.484
 337  1319.77
 338  1260.925
 339  1143.891
 340  1207.886
 341  1229.909
 342  1142.136
 343  992.2805
 344  1003.716
 345  1135.709
 346  1199.406
 347  1290.472
 348  1408.665
 349  1710.694
 350  1951.722
 351  2112.16
 352  2126.927
 353  2126.156
 354  2051.87
 355  1939.87
 356  1854.939
 357  1797.48
 358  1828.15
 359  1865.431
 360  1889.662
 361  1769.025
 362  1573.29
 363  1587.645
 364  1608.183
 365  1587.188
 366  1329.175
 367  1242.636
 368  1266.308
 369  1317.508
 370  1310.992
 371  1371.501
 372  1360.305
 373  1156.104
 374  1165.703
 375  1225.072
 376  1335.042
 377  1373.893
 378  1550.273
 379  1511.371
 380  1296.458
 381  1215.273
 382  1476.35
 383  1676.862
 384  1736.964
 385  1808.708
 386  1935.922
 387  1983.639
 388  1945.323
 389  1876.382
 390  1877.077
 391  1834.517
 392  1881.797
 393  1860.168
 394  1648.172
 395  1477.422
 396  1428.104
 397  1480.549
 398  1331.724
 399  1145.595
 400  1315.903
 401  1551.526
 402  1345.616
 403  1083.679
 404  1122.246
 405  1283.637
 406  1315.82
 407  1221.7
 408  1264.362
 409  1210.322
 410  1260.584
 411  1406.281
 412  1298.949
 413  1281.044
 414  1420.417
 415  1564.168
 416  1520.513
 417  1485.24
 418  1707.071
 419  1800.479
 420  1805.552
 421  1746.511
 422  1780.61
 423  1779.79
 424  1792.295
 425  1844.025
 426  1924.519
 427  1842.902
 428  1581.081
 429  1447.573
 430  1376.213
 431  1319.279
 432  1404.819
 433  1505.402
 434  1582.301
 435  1357.735
 436  1276.338
 437  1218.849
 438  1284.799
 439  1304.29
 440  1322.038
 441  1420.24
 442  1411.67
 443  1465.473
 444  1432.866
 445  1445.709
 446  1265.943
 447  1321.06
 448  1245.629
 449  1302.986
 450  1358.276
 451  1563.132
 452  1613.457
 453  1639.85
 454  1647.3
 455  1725.971
 456  1865.63
 457  1989.465
 458  1906.696
 459  1693.294
 460  1538.977
 461  1521.543
 462  1349.155
 463  1339.439
 464  1230.787
 465  1325.821
 466  1374.229
 467  1280.393
 468  1360.875
 469  1228.967
 470  1193.874
 471  1084.016
 472  1095.855
 473  1231.45
 474  1302.103
 475  1437.855
 476  1471.256
 477  1481.359
 478  1499.04
 479  1542.543
 480  1586.25
 481  1835.82
 482  1873.024
 483  1816.98
 484  1789.904
 485  1732.627
 486  1847.068
 487  1794.93
 488  1964.027
 489  2017.106
 490  1920.345
 491  1738.286
 492  1608.524
 493  1649.403
 494  1522.601
 495  1277.848
 496  1420.32
 497  1493.647
 498  1553.797
 499  1334.889
 500  1341.086
 501  1321.373
 502  1343.195
 503  1270.987
 504  1141.546
 505  1030.822
 506  1181.509
 507  1359.811
 508  1524.49
 509  1401.797
 510  1291.32
 511  1272.001
 512  1457.565
 513  1522.212
 514  1543.716
 515  1557.934
 516  1793.063
 517  1858.29
 518  1978.771
 519  1929.698
 520  1910.432
 521  1844.557
 522  1947.047
 523  1935.063
 524  1855.81
 525  1731.97
 526  1944.482
 527  1820.893
 528  1712.397
 529  1605.246
 530  1670.988
 531  1700.324
 532  1504.83
 533  1537.525
 534  1445.24
 535  1230.622
 536  1092.679
 537  1026.646
 538  1140.431
 539  1055.859
 540  1206.119
 541  1364.313
 542  1291.977
 543  1071.21
 544  1112.412
 545  1288.5
 546  1536.507
 547  1672.158
 548  1859.685
 549  1926.445
 550  1914.982
 551  2014.951
 552  2085.738
 553  1959.159
 554  1686.048
 555  1772.231
 556  1971.886
 557  1898.523
 558  1759.933
 559  1686.186
 560  1649.733
 561  1587.092
 562  1500.816
 563  1663.45
 564  1684.579
 565  1603.261
 566  1581.994
 567  1637.433
 568  1582.998
 569  1452.092
 570  1362.524
 571  1399.877
 572  1330.996
 573  1435.657
 574  1498.629
 575  1410.158
 576  1339.009
 577  1312.633
 578  1342.153
 579  1267.217
 580  1350.406
 581  1537.098
 582  1669.209
 583  1700.08
 584  1829.011
 585  1824.522
 586  1952.89
 587  2039.286
 588  2173.102
 589  2102.631
 590  1952.833
 591  1903.935
 592  1918.892
 593  1810.707
 594  1811.215
 595  1802.627
 596  1932.503
 597  1916.197
 598  2033.144
 599  2306.454
 600  2338.561
 601  2334.34
 602  2273.011
 603  2445.875
 604  2450.983
 605  2340.316
 606  2164.793
 607  1967.092
 608  1831.871
 609  1720.201
 610  1634.269
 611  1540.528
 612  1601.347
 613  1739.483
 614  1938.733
 615  1823.352
 616  1890
 617  1861.936
 618  1797.167
 619  1717.617
 620  1692.28
 621  1863.251
 622  1985.471
 623  1975.823
 624  1834.044
 625  1683.007
 626  1608.547
 627  1573.041
 628  1398.337
 629  1546.139
 630  1557.776
 631  1681.593
 632  1647.28
 633  1595.904
 634  1481.672
 635  1345.266
 636  1511.554
 637  1587.765
 638  1407.857
 639  1380.64
 640  1375.055
 641  1565.667
 642  1473.173
 643  1469.645
 644  1432.105
 645  1499.156
 646  1693.365
 647  1793.422
 648  1884.895
 649  1796.65
 650  1684.05
 651  1744.833
 652  1865.092
 653  1951.867
 654  1963.013
 655  1904.935
 656  1868.225
 657  1847.332
 658  1880.098
 659  2002.927
 660  1816.331
 661  1617.622
 662  1438.005
 663  1499.561
 664  1510.449
 665  1543.317
 666  1447.394
 667  1357.945
 668  1239.911
 669  1310.079
 670  1205.098
 671  1231.533
 672  1282.028
 673  1470.429
 674  1444.686
 675  1293.934
 676  1273.725
 677  1368.912
 678  1491.574
 679  1671.281
 680  1873.455
 681  2101.291
 682  2032.951
 683  1894.063
 684  1872.395
 685  1840.202
 686  1793.88
 687  1754.505
 688  1864.921
 689  1910.439
 690  1769.801
 691  1856.448
 692  1770.476
 693  1691.677
 694  1533.092
 695  1576.245
 696  1686.752
 697  1827.156
 698  1773.734
 699  1701.41
 700  1429.548
 701  1493.392
 702  1451.686
 703  1327.057
 704  1303.348
 705  1291.04
 706  1378.138
 707  1256.681
 708  1151.455
 709  1149.786
 710  1091.292
 711  1280.689
 712  1444.874
 713  1656.012
 714  1857.504
 715  2040.088
 716  2147.027
 717  2132.286
 718  2109.178
 719  2072.256
 720  1763.063
 721  1652.342
 722  1730.498
 723  1684.335
 724  1561.94
 725  1285.864
 726  1171.187
 727  1226.354
 728  1385.595
 729  1605.183
 730  1447.323
 731  1269.877
 732  1295.281
 733  1242.609
 734  1291.976
 735  1211.876
 736  1322.213
 737  1397.055
 738  1268.806
 739  1407.986
 740  1266.454
 741  1235.987
 742  1224.714
 743  1274.542
 744  1315.507
 745  1313.266
 746  1513.66
 747  1682.844
 748  1603.842
 749  1732.184
 750  1758.254
 751  1904.893
 752  1762.254
 753  1599.331
 754  1649.025
 755  1758.539
 756  1747.088
 757  1578.228
 758  1389.507
 759  1403.814
 760  1467.457
 761  1582.95
 762  1608.081
 763  1422.318
 764  1374.332
 765  1394.57
 766  1361.592
 767  1225.761
 768  1155.735
 769  1232.206
 770  1193.674
 771  1138.216
 772  1313.162
 773  1211.393
 774  1217.674
 775  1219.664
 776  1393.448
 777  1352.178
 778  1293.887
 779  1467.58
 780  1534.083
 781  1628.616
 782  1809.928
 783  1851.151
 784  1997.792
 785  2023.349
 786  2071.005
 787  2055.136
 788  1814.299
 789  1722.518
 790  1477.062
 791  1370.653
 792  1334.433
 793  1171.404
 794  1233.001
 795  1195.236
 796  1352.579
 797  1403.318
 798  1426.216
 799  1413.219
 800  1120.196
 801  1129.312
 802  1163.407
 803  1240.038
 804  1243.335
 805  1283.817
 806  1396.195
 807  1455.568
 808  1416.024
 809  1446.765
 810  1484.771
 811  1661.099
 812  1832.408
 813  1866.63
 814  1661.092
 815  1411.535
 816  1478.67
 817  1759.461
 818  1862.454
 819  1892.763
 820  1865.656
 821  2063.438
 822  1971.93
 823  1989.512
 824  1823.285
 825  1766.098
 826  1462.359
 827  1388.831
 828  1362.185
 829  1501.467
 830  1479.949
 831  1428.601
 832  1272.26
 833  998.4227
 834  1136.34
 835  1344.17
 836  1467.353
 837  1399.537
 838  1230.938
 839  1367.193
 840  1330.359
 841  1472.367
 842  1551.325
 843  1552.573
 844  1590.431
 845  1722.18
 846  2003.216
 847  2161.401
 848  1959.384
 849  1945.838
 850  1933.889
 851  1955.973
 852  1762.161
 853  1505.452
 854  1625.625
 855  1689.721
 856  1777.833
 857  1786.286
 858  1641.917
 859  1487.906
 860  1457.462
 861  1572.164
 862  1736.56
 863  1760.512
 864  1782.149
 865  1638.635
 866  1465.014
 867  1333.61
 868  1210.317
 869  1187.126
 870  1255.518
 871  1179.82
 872  1219.37
 873  1103.023
 874  1111.176
 875  1081.444
 876  1238.877
 877  1565.505
 878  1656.443
 879  1832.135
 880  1911.989
 881  1990.275
 882  1772.522
 883  1697.323
 884  1837.685
 885  1932.614
 886  1856.403
 887  1778.623
 888  1807.792
 889  1805.366
 890  1787.695
 891  1605.049
 892  1441.943
 893  1415.607
 894  1743.222
 895  1982.581
 896  1756.619
 897  1630.36
 898  1426.424
 899  1421.383
 900  1305.584
 901  1260.842
 902  1217.534
 903  1112.797
 904  1334.818
 905  1489.369
 906  1472.419
 907  1272.181
 908  1230.116
 909  1316.256
 910  1572.455
 911  1606.327
 912  1817.657
 913  1702.416
 914  1767.884
 915  1906.774
 916  2141.146
 917  2116.793
 918  1840.439
 919  1817.57
 920  1906.47
 921  1718.951
 922  1554.242
 923  1436.634
 924  1421.166
 925  1413.504
 926  1358.838
 927  1588.245
 928  1400.54
 929  1279.668
 930  1312.887
 931  1444.185
 932  1444.285
 933  1118.909
 934  1091.865
 935  1154.695
 936  1168.08
 937  1219.594
 938  1381.43
 939  1480.084
 940  1436.985
 941  1314.963
 942  1396.975
 943  1384.428
 944  1587.539
 945  1780.423
 946  1878.904
 947  1805.434
 948  1725.537
 949  1832.112
 950  1970.046
 951  1973.16
 952  2000.999
 953  1889.276
 954  1805.745
 955  1595.945
 956  1497.685
 957  1439.288
 958  1409.656
 959  1470.675
 960  1466.726
 961  1327.196
 962  1231.401
 963  1161.787
 964  1211.479
 965  1241.211
 966  1243.172
 967  1378.296
 968  1419.781
 969  1417.252
 970  1297.791
 971  1244.976
 972  1292.375
 973  1391.23
 974  1408.523
 975  1527.887
 976  1628.643
 977  1858.244
 978  1810.84
 979  1852.297
 980  1949.764
 981  2058.382
 982  2079.429
 983  1961.063
 984  1852.355
 985  1866.837
 986  1838.646
 987  1818.66
 988  1587.693
 989  1508.489
 990  1577.925
 991  1538.415
 992  1548.209
 993  1469.506
 994  1678.324
 995  1686.637
 996  1499.581
 997  1446.598
 998  1288.026
 999  1210.036
1000  1190.294
1001  1226.129
1002  1205.118
1003  1208.176
1004  1386.246
1005  1578.719
1006  1499.635
1007  1366.525
1008  1380.075
1009  1617.008
1010  1855.733
1011  1733.295
1012  1723.591
1013  1745.388
1014  1683.188
1015  1605.173
1016  1500.553
1017  1597.923
1018  1666.173
1019  1781.405
1020  1904.511
1021  1807.223
1022  1855.118
1023  1924.606
