# Input file       =  1207752188.129288_cleaned.dat
# Candidate        =  PSR_0332+5434
# Telescope        =  AR
# Epoch_topo       =  58222.613508440831
# Epoch_bary       =  N/A
# T_sample         =  0.002
# Data Folded      =  7340032
# Data Avg         =  0.203573460219819
# Data StdDev      =  5.19369299368948 
# Profile Bins     =  1024
# Profile Avg      =  1459.25616780767 
# Profile StdDev   =  439.719041514269 
# Reduced chi-sqr  =  0.757
# Prob(Noise)      <  1   (~0.0 sigma)
# P_topo (ms)      =  714.56080112821   +/- 0.000377
# P'_topo (s/s)    =  -0                +/- 1.99e-10
# P''_topo (s/s^2) =  0                 +/- 8.78e-14
# P_bary (ms)      =  N/A
# P'_bary (s/s)    =  N/A
# P''_bary (s/s^2) =  N/A
# P_orb (s)        =  N/A
# asin(i)/c (s)    =  N/A
# eccentricity     =  N/A
# w (rad)          =  N/A
# T_peri           =  N/A
######################################################
   0  1496.291
   1  1420.682
   2  1386.445
   3  1255.121
   4  1058.538
   5  1042.86
   6  1174.619
   7  1245.718
   8  1246.744
   9  1326.897
  10  1403.51
  11  1474.276
  12  1366.828
  13  1487.18
  14  1592.974
  15  1615.158
  16  1518.171
  17  1421.108
  18  1414.233
  19  1343.833
  20  1255.485
  21  1328.722
  22  1413.833
  23  1499.261
  24  1449.845
  25  1396.032
  26  1398.468
  27  1433.068
  28  1372.002
  29  1397.72
  30  1499.399
  31  1524.016
  32  1410.026
  33  1397.35
  34  1374.912
  35  1426.626
  36  1442.199
  37  1547.943
  38  1576.664
  39  1519.877
  40  1448.349
  41  1373.317
  42  1362.635
  43  1401.462
  44  1508.526
  45  1615.765
  46  1717.388
  47  1704.747
  48  1719.673
  49  1652.113
  50  1567.571
  51  1635.283
  52  1762.906
  53  1818.641
  54  1744.885
  55  1703.752
  56  1723.139
  57  1832.948
  58  1813.511
  59  1834.393
  60  1818.633
  61  1961.233
  62  1837.929
  63  1754.781
  64  1598.357
  65  1570.684
  66  1673.889
  67  1718.919
  68  1826.485
  69  1801.917
  70  1800.59
  71  1734.51
  72  1692.147
  73  1725.76
  74  1706.604
  75  1734.736
  76  1687.046
  77  1653.755
  78  1512.745
  79  1565.803
  80  1610.428
  81  1699.563
  82  1615.872
  83  1567.008
  84  1515.09
  85  1499.667
  86  1468.347
  87  1423.58
  88  1341.476
  89  1334.34
  90  1251.72
  91  1321.538
  92  1350.251
  93  1473.598
  94  1538.179
  95  1576.366
  96  1455.413
  97  1377.467
  98  1421.188
  99  1464.165
 100  1465.049
 101  1435.385
 102  1438.129
 103  1379.106
 104  1341.233
 105  1332.417
 106  1300.019
 107  1287.689
 108  1193.949
 109  1203.686
 110  1251.839
 111  1334.303
 112  1348.95
 113  1457.808
 114  1489.239
 115  1427.275
 116  1363.614
 117  1362.034
 118  1360.5
 119  1388.092
 120  1401.54
 121  1336.021
 122  1255.229
 123  1162.656
 124  1153.602
 125  1149.789
 126  1194.338
 127  1273.61
 128  1211.005
 129  1253.186
 130  1200.638
 131  1336.489
 132  1262.382
 133  1214.013
 134  1224.584
 135  1316.837
 136  1368.63
 137  1350.975
 138  1374.258
 139  1350.398
 140  1385.036
 141  1326.133
 142  1409.743
 143  1472.231
 144  1560.984
 145  1507.12
 146  1492.985
 147  1402.846
 148  1262.371
 149  1147.14
 150  1082.207
 151  1034.668
 152  1143.281
 153  1271.417
 154  1451.327
 155  1456.06
 156  1440.703
 157  1470.374
 158  1459.829
 159  1418.436
 160  1318.964
 161  1168.994
 162  1135.139
 163  1092.784
 164  1214.089
 165  1283.364
 166  1293.482
 167  1334.597
 168  1356.143
 169  1325.819
 170  1254.262
 171  1159.841
 172  1233.414
 173  1105.929
 174  1042.445
 175  1015.758
 176  1211.131
 177  1309.095
 178  1423.061
 179  1367.474
 180  1468.872
 181  1500.4
 182  1677.688
 183  1594.041
 184  1485.011
 185  1366.86
 186  1331.303
 187  1304.681
 188  1199.55
 189  1259.043
 190  1393.756
 191  1547.218
 192  1480.22
 193  1401.681
 194  1333.255
 195  1404.391
 196  1358.816
 197  1309.91
 198  1337.749
 199  1430.997
 200  1453.787
 201  1485.135
 202  1480.757
 203  1476.681
 204  1358.07
 205  1261.408
 206  1390.59
 207  1373.46
 208  1471.371
 209  1583.784
 210  1665.583
 211  1622.438
 212  1705.192
 213  1718.121
 214  1822.986
 215  1808.282
 216  1843.473
 217  1877.326
 218  1812.716
 219  1820.591
 220  1784.63
 221  1811.202
 222  1857.59
 223  1931.528
 224  1910.752
 225  1851.52
 226  1779.907
 227  1770.342
 228  1733.518
 229  1600.089
 230  1591.29
 231  1639.055
 232  1706.165
 233  1588.188
 234  1668.737
 235  1688.684
 236  1703.054
 237  1739.177
 238  1642.177
 239  1553.483
 240  1417.599
 241  1452.606
 242  1511.282
 243  1595.802
 244  1723.859
 245  1725.931
 246  1740.101
 247  1603.24
 248  1625.384
 249  1652.903
 250  1659.565
 251  1571.785
 252  1451.297
 253  1444.481
 254  1449.619
 255  1526.475
 256  1551.162
 257  1428.158
 258  1306.926
 259  1318.67
 260  1391.507
 261  1277.305
 262  1212.032
 263  1216.566
 264  1265.042
 265  1238.931
 266  1286.457
 267  1295.133
 268  1408.048
 269  1502.42
 270  1530.337
 271  1476.553
 272  1373.318
 273  1476.96
 274  1493.007
 275  1446.496
 276  1358.936
 277  1405.718
 278  1479.566
 279  1354.594
 280  1181.847
 281  1164.222
 282  1150.391
 283  1177.564
 284  1241.733
 285  1344.736
 286  1401.324
 287  1410.918
 288  1453.294
 289  1607.152
 290  1608.374
 291  1579.062
 292  1478.724
 293  1473.424
 294  1409.324
 295  1429.32
 296  1395.249
 297  1423.008
 298  1366.631
 299  1375.28
 300  1389.684
 301  1590.144
 302  1625.834
 303  1616.398
 304  1589.164
 305  1681.995
 306  1692.883
 307  1576.997
 308  1597.635
 309  1666.326
 310  1691.338
 311  1594.623
 312  1586.31
 313  1652.031
 314  1772.032
 315  1871.125
 316  1765.827
 317  1665.19
 318  1643.709
 319  1627.215
 320  1559.43
 321  1474.719
 322  1397.146
 323  1395.626
 324  1429.192
 325  1416.225
 326  1370.362
 327  1307.645
 328  1425.169
 329  1531.925
 330  1530.907
 331  1397.511
 332  1360.003
 333  1359.867
 334  1417.546
 335  1441.631
 336  1404.218
 337  1364.924
 338  1405.197
 339  1484.815
 340  1545.094
 341  1466.282
 342  1501.429
 343  1513.147
 344  1583.759
 345  1581.077
 346  1706.964
 347  1729.15
 348  1773.043
 349  1638.065
 350  1751.527
 351  1700.557
 352  1807.432
 353  1749.449
 354  1791.815
 355  1728.679
 356  1768.551
 357  1758.161
 358  1765.947
 359  1827.596
 360  1967.501
 361  1895.57
 362  1876.98
 363  1849.492
 364  1865.139
 365  1790.073
 366  1762.043
 367  1742.714
 368  1802.905
 369  1683.971
 370  1686.254
 371  1619.609
 372  1479.839
 373  1497.917
 374  1534.405
 375  1773.329
 376  1714.22
 377  1659.75
 378  1563.123
 379  1602.637
 380  1624.906
 381  1643.006
 382  1673.663
 383  1675.181
 384  1742.383
 385  1774.5
 386  1752.046
 387  1629.143
 388  1577.122
 389  1570.931
 390  1620.254
 391  1600.866
 392  1638.841
 393  1602.874
 394  1634.602
 395  1740.112
 396  1747.944
 397  1648.656
 398  1591.14
 399  1554.138
 400  1596.871
 401  1540.55
 402  1588.265
 403  1431.318
 404  1425.59
 405  1397.559
 406  1483.243
 407  1434.721
 408  1400.151
 409  1406.922
 410  1389.223
 411  1279.59
 412  1311.326
 413  1370.599
 414  1379.805
 415  1300.414
 416  1304.716
 417  1468.478
 418  1503.881
 419  1484.204
 420  1308.124
 421  1275.709
 422  1210.69
 423  1147.332
 424  1024.457
 425  947.4601
 426  1110.467
 427  1237.215
 428  1333.468
 429  1291.113
 430  1259.847
 431  1216.961
 432  1222.335
 433  1329.501
 434  1453.332
 435  1390.232
 436  1370.474
 437  1350.851
 438  1399.281
 439  1354.365
 440  1372.594
 441  1436.294
 442  1452.61
 443  1410.356
 444  1483.822
 445  1474.863
 446  1463.347
 447  1288.646
 448  1166.315
 449  1117.009
 450  1285.784
 451  1438.966
 452  1393.095
 453  1344.877
 454  1346.072
 455  1404.732
 456  1354.772
 457  1307.902
 458  1264.204
 459  1254.9
 460  1377.084
 461  1499.622
 462  1534.147
 463  1431.97
 464  1396.571
 465  1416.064
 466  1529.6
 467  1521.485
 468  1509.986
 469  1381.268
 470  1360.707
 471  1382.137
 472  1312.088
 473  1193.307
 474  1288.724
 475  1442.667
 476  1523.268
 477  1454.781
 478  1465.917
 479  1356.496
 480  1308.79
 481  1295.316
 482  1427.742
 483  1433.045
 484  1413.173
 485  1487.054
 486  1519.299
 487  1479.576
 488  1283.466
 489  1174.19
 490  1199.304
 491  1297.75
 492  1448.645
 493  1462.847
 494  1494.336
 495  1314.362
 496  1316.74
 497  1368.896
 498  1502.198
 499  1418.849
 500  1459.319
 501  1495.036
 502  1621.09
 503  1577.548
 504  1620.296
 505  1730.32
 506  1664.916
 507  1604.22
 508  1564.201
 509  1613.292
 510  1656.206
 511  1752.506
 512  1710.095
 513  1769.505
 514  1605.318
 515  1635.54
 516  1563.2
 517  1550.63
 518  1548.713
 519  1624.537
 520  1803.881
 521  1904.389
 522  1864.042
 523  1733.817
 524  1776.72
 525  1770.221
 526  1684.462
 527  1472.207
 528  1431.935
 529  1434.081
 530  1481.527
 531  1488.277
 532  1583.201
 533  1452.615
 534  1401.387
 535  1471.564
 536  1561.337
 537  1589.496
 538  1416.812
 539  1424.507
 540  1510.668
 541  1500.693
 542  1478.722
 543  1456.161
 544  1420.785
 545  1437.562
 546  1347.82
 547  1357.523
 548  1424.525
 549  1524.159
 550  1513.001
 551  1431.854
 552  1409.908
 553  1412.092
 554  1391.578
 555  1440.273
 556  1536.823
 557  1541.366
 558  1437.909
 559  1349.272
 560  1337.533
 561  1355.432
 562  1396.361
 563  1308.124
 564  1441.455
 565  1557.697
 566  1653.19
 567  1489.01
 568  1438.378
 569  1494.97
 570  1486.062
 571  1340.645
 572  1266.995
 573  1293.931
 574  1338.497
 575  1413.414
 576  1462.817
 577  1402.296
 578  1313.681
 579  1239.459
 580  1205.005
 581  1076.988
 582  1008.477
 583  1183.05
 584  1249.925
 585  1301.029
 586  1195.771
 587  1235.997
 588  1332.78
 589  1463.603
 590  1629.083
 591  1590.201
 592  1453.339
 593  1226.352
 594  1294.333
 595  1494.755
 596  1741.566
 597  1863.1
 598  1895.455
 599  2062.817
 600  2205.337
 601  2467.682
 602  2621.134
 603  2620.473
 604  2593.99
 605  2548.414
 606  2493.611
 607  2263.913
 608  2095.082
 609  1881.937
 610  1729.661
 611  1617.259
 612  1612.076
 613  1468.917
 614  1406.664
 615  1384.961
 616  1444.298
 617  1463.681
 618  1438.308
 619  1417.468
 620  1265.07
 621  1212.117
 622  1140.41
 623  1251.667
 624  1247.954
 625  1241.259
 626  1255.829
 627  1210.002
 628  1268.184
 629  1433.324
 630  1388.815
 631  1280.927
 632  1261.332
 633  1360.342
 634  1278.092
 635  1131.751
 636  1099.684
 637  1180.074
 638  1336.829
 639  1442.47
 640  1590.786
 641  1575.352
 642  1498.605
 643  1438.426
 644  1483.583
 645  1621.482
 646  1709.295
 647  1636.326
 648  1591.792
 649  1570.255
 650  1661.283
 651  1660.756
 652  1538.524
 653  1531.658
 654  1538.917
 655  1537.017
 656  1587.606
 657  1641.66
 658  1662.267
 659  1643.063
 660  1612.418
 661  1615.519
 662  1567.049
 663  1509.042
 664  1543.6
 665  1537.517
 666  1520.328
 667  1503.455
 668  1526.735
 669  1580.22
 670  1631.428
 671  1654.271
 672  1571.902
 673  1472.265
 674  1470.41
 675  1531.615
 676  1513.24
 677  1484.002
 678  1482.371
 679  1461.495
 680  1350.486
 681  1281.516
 682  1342.513
 683  1435.784
 684  1567.709
 685  1550.807
 686  1355.565
 687  1266.501
 688  1280.401
 689  1252.781
 690  1161.384
 691  1078.368
 692  1039.421
 693  1013.224
 694  1126.115
 695  1362.145
 696  1384.769
 697  1294.538
 698  1293.186
 699  1311.131
 700  1256.767
 701  1223.152
 702  1275.376
 703  1228.092
 704  1115.01
 705  975.2503
 706  1018.052
 707  949.6359
 708  1048.085
 709  1070.409
 710  1019.795
 711  937.1495
 712  1016.196
 713  1171.465
 714  1262.328
 715  1276.487
 716  1268.568
 717  1187.618
 718  1123.796
 719  1164.938
 720  1144.208
 721  1073.664
 722  1111.859
 723  1220.569
 724  1329.623
 725  1349.297
 726  1375.901
 727  1322.426
 728  1313.622
 729  1291.141
 730  1343.474
 731  1282.435
 732  1267.198
 733  1244.427
 734  1292.633
 735  1371.499
 736  1407.463
 737  1308.538
 738  1204.346
 739  1205.753
 740  1303.368
 741  1240.208
 742  1133.23
 743  1085.931
 744  1078.18
 745  1185.856
 746  1152.437
 747  1253.492
 748  1209.571
 749  1229.858
 750  1315.541
 751  1327.542
 752  1214.362
 753  1212.673
 754  1188.583
 755  1154.068
 756  1093.86
 757  1113.006
 758  1190.191
 759  1136.398
 760  1223.599
 761  1281.946
 762  1273.76
 763  1139.044
 764  1148.251
 765  1238.666
 766  1295.256
 767  1375.526
 768  1360.615
 769  1172.046
 770  1020.677
 771  977.6419
 772  1079.438
 773  1135.747
 774  1250.151
 775  1342.991
 776  1413.812
 777  1366.626
 778  1315.254
 779  1217.646
 780  1031.972
 781  952.8495
 782  1028.441
 783  1114.398
 784  1217.227
 785  1140.385
 786  1246.964
 787  1279.731
 788  1316.58
 789  1355.676
 790  1341.441
 791  1430.444
 792  1428.747
 793  1438.56
 794  1438.523
 795  1405.729
 796  1429.3
 797  1499.511
 798  1514.816
 799  1672.382
 800  1777.69
 801  1835.146
 802  1825.473
 803  1817.001
 804  1768.989
 805  1701.369
 806  1686.79
 807  1732.345
 808  1830.922
 809  1886.048
 810  1795.191
 811  1604.148
 812  1548.233
 813  1568.469
 814  1625.223
 815  1554.09
 816  1434.533
 817  1461.954
 818  1582.797
 819  1586.328
 820  1389.911
 821  1340.963
 822  1360.959
 823  1517.4
 824  1521.545
 825  1419.51
 826  1341.948
 827  1363.561
 828  1497.187
 829  1541.409
 830  1465.786
 831  1564.955
 832  1511.467
 833  1613.333
 834  1473.299
 835  1489.692
 836  1531.781
 837  1651.26
 838  1696.146
 839  1667.574
 840  1592.132
 841  1546.188
 842  1475.312
 843  1274.641
 844  1225.86
 845  1234.122
 846  1312.976
 847  1372.203
 848  1422.594
 849  1372.096
 850  1422.001
 851  1430.035
 852  1370.88
 853  1238.693
 854  1103.3
 855  1179.876
 856  1210.207
 857  1348.329
 858  1433.723
 859  1536.071
 860  1544.318
 861  1421.582
 862  1303.571
 863  1275.938
 864  1342.297
 865  1446.605
 866  1508.349
 867  1339.221
 868  1234.208
 869  1270.14
 870  1383.145
 871  1467.294
 872  1463.058
 873  1419.942
 874  1366.627
 875  1426.854
 876  1376.071
 877  1406.967
 878  1256.987
 879  1211.778
 880  1099.93
 881  1024.846
 882  1095.588
 883  1188.316
 884  1320.037
 885  1241.935
 886  1171.591
 887  1009.809
 888  1113.577
 889  1236.42
 890  1363.61
 891  1413.782
 892  1437.196
 893  1525.549
 894  1610.592
 895  1658.26
 896  1652.625
 897  1647.684
 898  1644.367
 899  1569.251
 900  1534.528
 901  1396.839
 902  1365.742
 903  1351.504
 904  1429.229
 905  1397.859
 906  1447.241
 907  1564.385
 908  1641.3
 909  1627.244
 910  1655.643
 911  1698.224
 912  1586.966
 913  1494.893
 914  1564.004
 915  1637.52
 916  1555.868
 917  1353.778
 918  1374.381
 919  1522.868
 920  1719.737
 921  1690.477
 922  1646.517
 923  1580.136
 924  1580.091
 925  1546.561
 926  1455.11
 927  1507.09
 928  1530.723
 929  1512.616
 930  1377.873
 931  1473.116
 932  1598.097
 933  1660.086
 934  1634.895
 935  1622.869
 936  1610.588
 937  1588.98
 938  1651.203
 939  1634.087
 940  1642.756
 941  1603.278
 942  1613.885
 943  1597.841
 944  1474.24
 945  1484.733
 946  1431.784
 947  1472.392
 948  1474.395
 949  1580.006
 950  1641.543
 951  1804.673
 952  1755.226
 953  1784.025
 954  1669.842
 955  1663.505
 956  1680.909
 957  1746.379
 958  1776.389
 959  1682.944
 960  1583.553
 961  1633.256
 962  1651.429
 963  1643.982
 964  1528.78
 965  1475.803
 966  1513.832
 967  1556.033
 968  1663.622
 969  1607.909
 970  1471.403
 971  1420.93
 972  1453.316
 973  1443.109
 974  1341.686
 975  1313.488
 976  1339.632
 977  1278.593
 978  1335.688
 979  1391.669
 980  1471.6
 981  1542.724
 982  1490.226
 983  1602.969
 984  1511.454
 985  1430.729
 986  1323.701
 987  1305.344
 988  1331.471
 989  1293.703
 990  1396.391
 991  1371.977
 992  1408.893
 993  1434.751
 994  1308.711
 995  1364.981
 996  1380.386
 997  1488.317
 998  1407.916
 999  1359.067
1000  1407.158
1001  1379.082
1002  1363.8
1003  1407.026
1004  1482.284
1005  1504.572
1006  1403.785
1007  1483.528
1008  1513.02
1009  1525.857
1010  1477.686
1011  1548.939
1012  1491.054
1013  1455.212
1014  1428.425
1015  1468.897
1016  1516.565
1017  1490.346
1018  1397.611
1019  1345.733
1020  1362.192
1021  1496.558
1022  1639.778
1023  1638.396
