# Input file       =  1208685322.118577_cleaned.dat
# Candidate        =  PSR_0332+5434
# Telescope        =  AR
# Epoch_topo       =  58233.413670353897
# Epoch_bary       =  N/A
# T_sample         =  0.002
# Data Folded      =  7340032
# Data Avg         =  0.0526798389973209
# Data StdDev      =  1.00022203310365 
# Profile Bins     =  512
# Profile Avg      =  755.253996609688 
# Profile StdDev   =  119.759621074442 
# Reduced chi-sqr  =  1.375
# Prob(Noise)      <  3.4e-08   (~5.4 sigma)
# P_topo (ms)      =  714.551650774227  +/- 0.000581
# P'_topo (s/s)    =  -0                +/- 3.06e-10
# P''_topo (s/s^2) =  0                 +/- 1.35e-13
# P_bary (ms)      =  N/A
# P'_bary (s/s)    =  N/A
# P''_bary (s/s^2) =  N/A
# P_orb (s)        =  N/A
# asin(i)/c (s)    =  N/A
# eccentricity     =  N/A
# w (rad)          =  N/A
# T_peri           =  N/A
######################################################
   0  1347.808
   1  1272.623
   2  1055.224
   3  867.0164
   4  772.6876
   5  716.851
   6  681.26
   7  727.9324
   8  749.8344
   9  833.2098
  10  829.5034
  11  796.804
  12  767.9231
  13  792.6563
  14  912.2029
  15  861.2004
  16  797.7227
  17  782.7285
  18  791.1581
  19  708.7894
  20  581.3885
  21  675.254
  22  726.1774
  23  613.925
  24  638.821
  25  629.1866
  26  620.3211
  27  592.504
  28  652.6896
  29  654.666
  30  684.4157
  31  614.5347
  32  642.2141
  33  616.7844
  34  622.8623
  35  698.3117
  36  702.7119
  37  677.0688
  38  666.195
  39  701.9916
  40  631.2261
  41  691.2505
  42  733.8036
  43  695.8654
  44  702.79
  45  685.7933
  46  681.2054
  47  688.8859
  48  726.3774
  49  754.0747
  50  845.4022
  51  791.3029
  52  701.5667
  53  706.3591
  54  697.5231
  55  737.8657
  56  743.3577
  57  706.6534
  58  682.3608
  59  679.8885
  60  747.3318
  61  641.8978
  62  642.636
  63  721.6278
  64  740.9984
  65  739.3893
  66  743.4411
  67  755.7708
  68  784.3409
  69  729.1345
  70  669.0167
  71  666.4
  72  726.8193
  73  805.3672
  74  769.1135
  75  841.4408
  76  902.9125
  77  813.3906
  78  887.2255
  79  898.6756
  80  801.4152
  81  797.0087
  82  875.0946
  83  872.2153
  84  833.1147
  85  787.0959
  86  799.4678
  87  803.5373
  88  755.983
  89  745.8762
  90  714.0944
  91  744.5754
  92  699.9894
  93  821.2814
  94  876.5616
  95  834.5657
  96  775.8624
  97  720.835
  98  744.7296
  99  801.5042
 100  791.2432
 101  776.2112
 102  760.5356
 103  747.4077
 104  753.6719
 105  786.4885
 106  905.6011
 107  902.0095
 108  873.3494
 109  865.5612
 110  872.2274
 111  794.5172
 112  839.6968
 113  771.2511
 114  766.8237
 115  810.6398
 116  786.7222
 117  741.9736
 118  801.5891
 119  848.9683
 120  855.7959
 121  831.4457
 122  861.8183
 123  895.495
 124  879.1756
 125  796.071
 126  779.6683
 127  799.638
 128  748.2042
 129  712.132
 130  690.7819
 131  707.6172
 132  704.5154
 133  795.7993
 134  798.6813
 135  761.603
 136  728.0972
 137  760.5588
 138  742.0468
 139  740.3802
 140  774.5966
 141  768.5948
 142  770.0541
 143  684.4213
 144  673.0949
 145  765.58
 146  716.1916
 147  812.8093
 148  800.3676
 149  741.0605
 150  805.7808
 151  827.8438
 152  841.9099
 153  892.905
 154  805.5002
 155  773.1311
 156  685.6013
 157  728.4342
 158  796.4954
 159  756.7994
 160  744.6317
 161  804.4659
 162  770.8047
 163  827.2429
 164  764.4457
 165  719.3247
 166  626.8737
 167  664.2376
 168  680.362
 169  705.0508
 170  768.12
 171  693.3333
 172  728.0816
 173  662.6253
 174  648.6962
 175  617.6672
 176  657.5368
 177  635.9594
 178  651.5964
 179  712.4036
 180  671.4221
 181  658.9705
 182  624.8426
 183  710.8461
 184  659.3397
 185  758.0684
 186  799.9047
 187  707.0383
 188  739.1746
 189  738.1419
 190  834.3599
 191  900.9561
 192  739.5953
 193  749.5351
 194  795.2427
 195  792.6086
 196  755.6597
 197  784.6
 198  796.9893
 199  831.8355
 200  772.9478
 201  763.3743
 202  743.291
 203  653.726
 204  711.608
 205  720.3131
 206  597.2363
 207  639.6169
 208  725.3049
 209  681.5244
 210  644.9105
 211  705.9503
 212  792.4265
 213  748.9182
 214  656.4849
 215  741.8407
 216  791.0745
 217  753.1484
 218  754.246
 219  800.496
 220  779.0798
 221  804.4922
 222  830.8774
 223  793.6551
 224  760.5364
 225  763.1721
 226  770.3036
 227  742.6345
 228  795.8575
 229  873.0894
 230  849.289
 231  724.6392
 232  701.9758
 233  735.8567
 234  694.0056
 235  637.5071
 236  629.4626
 237  753.2736
 238  769.9717
 239  744.5857
 240  754.3561
 241  699.6892
 242  742.0133
 243  712.1628
 244  675.7241
 245  665.1095
 246  663.8297
 247  658.1238
 248  709.6486
 249  698.3204
 250  601.9199
 251  627.1151
 252  658.0792
 253  675.2206
 254  747.9212
 255  742.9188
 256  750.4202
 257  757.2763
 258  759.5105
 259  844.7625
 260  885.2949
 261  845.8046
 262  794.8293
 263  737.2017
 264  775.2772
 265  752.6319
 266  669.1326
 267  758.8658
 268  746.4945
 269  750.9771
 270  800.0856
 271  838.9696
 272  791.8376
 273  796.4356
 274  778.0603
 275  896.2404
 276  887.4777
 277  890.7072
 278  953.9443
 279  934.8586
 280  936.9837
 281  892.651
 282  889.2769
 283  875.554
 284  911.8911
 285  927.319
 286  899.9258
 287  930.0745
 288  887.2712
 289  858.8419
 290  846.7722
 291  881.5563
 292  818.5741
 293  871.7876
 294  906.4168
 295  933.3958
 296  864.5414
 297  822.414
 298  835.8997
 299  772.0607
 300  889.7515
 301  827.8588
 302  799.7171
 303  852.8331
 304  858.649
 305  760.5869
 306  814.6678
 307  763.6346
 308  715.4427
 309  724.8364
 310  788.8737
 311  785.1025
 312  677.1068
 313  751.4804
 314  781.0115
 315  792.2117
 316  780.8824
 317  820.3466
 318  712.2603
 319  676.4556
 320  679.5073
 321  792.5019
 322  839.3203
 323  778.8854
 324  720.7541
 325  776.2423
 326  777.1353
 327  776.9996
 328  773.8251
 329  799.6377
 330  728.9448
 331  750.0807
 332  746.0831
 333  713.7532
 334  706.6304
 335  744.8073
 336  734.7391
 337  734.3135
 338  756.5563
 339  670.2001
 340  713.4104
 341  808.126
 342  781.171
 343  842.3541
 344  837.1124
 345  816.8848
 346  840.3712
 347  790.524
 348  814.6821
 349  794.6236
 350  858.7777
 351  815.099
 352  792.6359
 353  735.6147
 354  832.8964
 355  795.8317
 356  786.6176
 357  778.8547
 358  731.6677
 359  781.7746
 360  842.6096
 361  778.6414
 362  794.481
 363  779.1577
 364  827.4744
 365  779.431
 366  775.1342
 367  813.9086
 368  819.3422
 369  841.9282
 370  783.4591
 371  755.3502
 372  816.8511
 373  800.6509
 374  786.9122
 375  779.9636
 376  802.9423
 377  832.9965
 378  814.1393
 379  799.5939
 380  820.683
 381  844.957
 382  875.6525
 383  834.2086
 384  698.5721
 385  651.5441
 386  753.6686
 387  766.8821
 388  737.6766
 389  672.2262
 390  715.3989
 391  733.6713
 392  693.2239
 393  638.2137
 394  711.6633
 395  694.6332
 396  699.6624
 397  727.6438
 398  778.1309
 399  655.7248
 400  623.5256
 401  589.751
 402  679.3664
 403  669.254
 404  703.3179
 405  668.1827
 406  642.4235
 407  649.365
 408  622.3788
 409  656.0153
 410  683.7323
 411  659.7359
 412  647.5255
 413  662.4692
 414  626.3647
 415  654.5601
 416  688.6047
 417  594.1847
 418  590.3366
 419  610.4233
 420  615.8664
 421  611.8978
 422  637.0915
 423  641.5616
 424  609.6862
 425  662.332
 426  599.2357
 427  571.0176
 428  643.5436
 429  692.668
 430  671.9618
 431  680.7975
 432  689.237
 433  642.3158
 434  643.0498
 435  580.6783
 436  714.7578
 437  610.7586
 438  627.5778
 439  633.5132
 440  606.4628
 441  601.111
 442  530.798
 443  620.3661
 444  641.3753
 445  588.2223
 446  586.7225
 447  655.2672
 448  620.0186
 449  570.4738
 450  529.5305
 451  559.7672
 452  566.9035
 453  685.0583
 454  664.7615
 455  679.9525
 456  658.9584
 457  659.0082
 458  705.3306
 459  630.1752
 460  585.1001
 461  597.7657
 462  653.4169
 463  717.4935
 464  596.5479
 465  604.5551
 466  691.8897
 467  586.3865
 468  613.4561
 469  657.752
 470  751.0356
 471  731.9293
 472  651.252
 473  655.9806
 474  661.478
 475  707.0838
 476  741.4855
 477  715.19
 478  731.024
 479  675.8138
 480  766.7462
 481  828.215
 482  760.2789
 483  793.5469
 484  807.779
 485  756.8926
 486  799.7521
 487  806.6115
 488  806.3412
 489  743.7263
 490  910.0925
 491  921.2501
 492  1029.102
 493  1096.384
 494  1001.901
 495  890.2451
 496  824.5391
 497  896.6019
 498  932.093
 499  844.5536
 500  905.1213
 501  888.4404
 502  872.4495
 503  780.3766
 504  792.8359
 505  832.5587
 506  893.3141
 507  919.1578
 508  983.7191
 509  1100.048
 510  1203.045
 511  1384.317
