# Input file       =  1208153608.10872_cleaned.dat
# Candidate        =  PSR_0332+5434
# Telescope        =  AR
# Epoch_topo       =  58227.259573017596
# Epoch_bary       =  N/A
# T_sample         =  0.002
# Data Folded      =  7143424
# Data Avg         =  0.203579724074231
# Data StdDev      =  4.9628349167077  
# Profile Bins     =  1024
# Profile Avg      =  1420.17155692162 
# Profile StdDev   =  414.508141468416 
# Reduced chi-sqr  =  2.965
# Prob(Noise)      <  7.92e-198   (~30.0 sigma)
# P_topo (ms)      =  714.556785103577  +/- 1.22e-05
# P'_topo (s/s)    =  -0                +/- 6.63e-12
# P''_topo (s/s^2) =  0                 +/- 3.01e-15
# P_bary (ms)      =  N/A
# P'_bary (s/s)    =  N/A
# P''_bary (s/s^2) =  N/A
# P_orb (s)        =  N/A
# asin(i)/c (s)    =  N/A
# eccentricity     =  N/A
# w (rad)          =  N/A
# T_peri           =  N/A
######################################################
   0  1938.116
   1  1683.085
   2  1570.938
   3  1429.303
   4  1248.23
   5  872.3025
   6  787.4542
   7  604.3543
   8  686.3549
   9  811.3519
  10  1162.255
  11  1478.236
  12  1683.436
  13  1803.891
  14  1760.626
  15  1615.79
  16  1626.562
  17  1523.714
  18  1432.373
  19  1208.439
  20  933.9607
  21  845.3294
  22  866.6743
  23  971.0326
  24  980.327
  25  1012.949
  26  1187.745
  27  1420.109
  28  1623.605
  29  1929.848
  30  2153.413
  31  2325.42
  32  2193.933
  33  1915.678
  34  1654.432
  35  1379.002
  36  1383.994
  37  1285.169
  38  1198.387
  39  946.3387
  40  889.6673
  41  1028.948
  42  1163.741
  43  1194.31
  44  1140.706
  45  1266.783
  46  1530.626
  47  1633.015
  48  1803.177
  49  1927.156
  50  1957.697
  51  1634.789
  52  1259.9
  53  1019.76
  54  1022.93
  55  982.9664
  56  1072.097
  57  1000.382
  58  1084.922
  59  1265.555
  60  1408.97
  61  1570.256
  62  1587.822
  63  1812.31
  64  1976.11
  65  2151.432
  66  2029.216
  67  2011.748
  68  1833.553
  69  1667.288
  70  1363.646
  71  1180.467
  72  950.7604
  73  882.7023
  74  933.9789
  75  1061.486
  76  1183.849
  77  1451.932
  78  1620.394
  79  1791.731
  80  1700.129
  81  1862.52
  82  1762.297
  83  1721.364
  84  1459.092
  85  1244.277
  86  1067.789
  87  935.463
  88  840.5706
  89  748.0952
  90  884.7718
  91  1048.033
  92  1368.332
  93  1486.722
  94  1709.958
  95  1825.523
  96  2109.283
  97  2204.33
  98  2146.926
  99  2031.931
 100  1746.681
 101  1486.258
 102  1228.671
 103  1041.481
 104  978.6998
 105  921.7343
 106  859.1137
 107  862.1942
 108  979.9023
 109  1177.196
 110  1216.573
 111  1253.996
 112  1394.972
 113  1544.032
 114  1700.511
 115  1760.613
 116  1670.227
 117  1357.902
 118  1110.908
 119  1065.673
 120  919.5853
 121  839.6209
 122  864.1464
 123  920.5131
 124  908.7166
 125  889.8452
 126  1187.339
 127  1388.675
 128  1725.745
 129  1896.342
 130  1955.574
 131  1788.891
 132  1748.97
 133  1667.043
 134  1460.273
 135  1187.556
 136  1011.373
 137  912.2753
 138  869.127
 139  888.8997
 140  955.8553
 141  1021.957
 142  1151.772
 143  1219.996
 144  1456.005
 145  1546.999
 146  1661.453
 147  1639.077
 148  1555.727
 149  1271.961
 150  964.3196
 151  856.0042
 152  833.5754
 153  600.1971
 154  609.5883
 155  615.4374
 156  712.692
 157  799.1234
 158  1035.78
 159  1224.859
 160  1281.125
 161  1460.237
 162  1767.547
 163  1923.393
 164  1843.759
 165  1724.859
 166  1644.031
 167  1353.426
 168  1076.431
 169  980.9119
 170  932.9014
 171  912.3206
 172  789.0845
 173  859.4584
 174  991.9957
 175  979.1445
 176  1121.063
 177  1375.683
 178  1680.685
 179  1734.958
 180  1687.346
 181  1707.802
 182  1615.254
 183  1332.35
 184  1165.585
 185  949.2097
 186  796.1904
 187  869.9567
 188  983.9296
 189  1072.055
 190  955.6581
 191  1123.994
 192  1215.405
 193  1373.668
 194  1577.281
 195  1737.68
 196  1745.19
 197  1702.349
 198  1771.844
 199  1606.823
 200  1546.553
 201  1437.931
 202  1352.934
 203  1102.353
 204  1004.667
 205  1002.715
 206  1071.317
 207  1224.46
 208  1378.513
 209  1420.813
 210  1415.274
 211  1563.572
 212  1728.735
 213  1781.751
 214  1864.972
 215  1901.11
 216  1922.549
 217  1616.133
 218  1250.002
 219  858.1749
 220  802.5818
 221  890.412
 222  1023.117
 223  1023.923
 224  1126.674
 225  1315.475
 226  1559.338
 227  1797.265
 228  1968.399
 229  2110.326
 230  2183.377
 231  2126.78
 232  1960.199
 233  1616.634
 234  1268.115
 235  1091.421
 236  972.1779
 237  926.9175
 238  897.6859
 239  992.1144
 240  1174.289
 241  1139.4
 242  1256.317
 243  1329.651
 244  1613.744
 245  1800.711
 246  1864.913
 247  1771.339
 248  1729.229
 249  1690.893
 250  1399.211
 251  1070.647
 252  960.5159
 253  901.2508
 254  846.1017
 255  874.662
 256  1168.62
 257  1374.031
 258  1435.706
 259  1500.797
 260  1661.555
 261  1907.275
 262  2202.86
 263  2255.75
 264  2143.635
 265  1850.393
 266  1670.765
 267  1541.467
 268  1399.848
 269  1268.5
 270  1062.446
 271  1037.676
 272  1048.631
 273  1115.349
 274  1297.482
 275  1494.442
 276  1527.895
 277  1544.246
 278  1574.074
 279  1691.543
 280  1880.956
 281  1847.395
 282  1636.286
 283  1190.28
 284  1082.979
 285  1074.649
 286  998.239
 287  899.7208
 288  844.7717
 289  965.3138
 290  1108.049
 291  1250.314
 292  1376.939
 293  1534.824
 294  1852.51
 295  2091.842
 296  2112.883
 297  1953.135
 298  1705.568
 299  1486.468
 300  1244.027
 301  1004.677
 302  912.9308
 303  955.7075
 304  1051.422
 305  1056.267
 306  1101.344
 307  1161.445
 308  1325.255
 309  1408.915
 310  1587.375
 311  1594.722
 312  1646.718
 313  1565.751
 314  1530.179
 315  1311.539
 316  1046.464
 317  959.7915
 318  1041.022
 319  1009.693
 320  954.7158
 321  1040.162
 322  1234.37
 323  1393.282
 324  1316.139
 325  1384.581
 326  1430.808
 327  1784.757
 328  1978.228
 329  2120.131
 330  2021.624
 331  1872.579
 332  1632.035
 333  1412.118
 334  1267.249
 335  1118.662
 336  1032.152
 337  972.011
 338  829.5728
 339  863.8111
 340  983.1884
 341  1178.823
 342  1106.88
 343  1205.125
 344  1356.518
 345  1621.51
 346  1622.305
 347  1641.863
 348  1447.269
 349  1316.411
 350  1201.555
 351  951.2371
 352  818.3461
 353  854.9766
 354  1013.377
 355  1150.169
 356  1123.478
 357  1222.515
 358  1360.498
 359  1568.063
 360  1989.898
 361  2071.072
 362  2050.402
 363  1820.725
 364  1814.019
 365  1729.52
 366  1574.414
 367  1487.013
 368  1252.596
 369  1033.402
 370  906.8076
 371  894.3614
 372  950.9319
 373  976.5546
 374  1147.783
 375  1364.776
 376  1566.519
 377  1778.968
 378  1919.005
 379  1999.968
 380  1980.161
 381  1751.349
 382  1399.964
 383  1084.775
 384  876.1002
 385  844.8505
 386  863.5483
 387  1041.122
 388  1239.203
 389  1268.809
 390  1267.084
 391  1360.119
 392  1658.315
 393  1868.543
 394  2045.541
 395  2243.07
 396  2045.139
 397  1707.452
 398  1262.916
 399  1148.555
 400  1202.817
 401  1129.276
 402  1085.782
 403  934.0633
 404  1012.233
 405  1095.721
 406  1229.007
 407  1325.933
 408  1515.613
 409  1597.482
 410  1631.55
 411  1482.581
 412  1572.923
 413  1647.453
 414  1666.031
 415  1627.321
 416  1367.745
 417  1092.722
 418  904.1408
 419  858.1005
 420  994.183
 421  907.829
 422  911.275
 423  971.33
 424  1212.496
 425  1535.501
 426  1763.906
 427  2090.549
 428  2239.838
 429  2169.096
 430  1911.588
 431  1649.393
 432  1398.517
 433  1210.72
 434  941.0054
 435  853.8573
 436  805.4141
 437  919.3619
 438  994.3584
 439  1151.572
 440  1266.02
 441  1290.957
 442  1326.174
 443  1563.307
 444  1669.052
 445  1882.996
 446  1840.687
 447  1739.53
 448  1289.522
 449  987.5622
 450  1022.328
 451  1058.02
 452  1051.916
 453  1057.979
 454  1201.513
 455  1315.299
 456  1417.23
 457  1534.995
 458  1728.297
 459  1862.635
 460  2089.886
 461  2036.832
 462  1939.095
 463  1811.842
 464  1782.688
 465  1614.563
 466  1380.038
 467  1217.308
 468  1108.033
 469  1009.546
 470  932.1852
 471  897.6335
 472  1039.128
 473  1339.438
 474  1373.093
 475  1368.484
 476  1525.304
 477  1763.57
 478  1846.224
 479  1639.888
 480  1470.025
 481  1271.611
 482  1096.422
 483  1124.893
 484  1077.743
 485  1019.027
 486  1008.153
 487  1214.72
 488  1284.705
 489  1250.536
 490  1218.718
 491  1347.621
 492  1581.02
 493  1898.647
 494  1984.818
 495  1984.636
 496  1810.856
 497  1886.981
 498  1666.525
 499  1431.755
 500  1103.009
 501  1013.467
 502  1004.749
 503  1084.224
 504  1079.167
 505  1216.846
 506  1347.517
 507  1410.501
 508  1472.45
 509  1364.423
 510  1567.798
 511  1753.068
 512  1930.486
 513  1753.706
 514  1486.662
 515  1237.506
 516  1091.782
 517  863.1365
 518  868.4533
 519  904.5558
 520  1061.451
 521  1099.108
 522  1154.606
 523  1427.476
 524  1578.863
 525  1869.016
 526  2122.906
 527  2269.511
 528  2175.554
 529  1973.892
 530  1832.086
 531  1648.521
 532  1472.214
 533  1244.531
 534  966.3734
 535  883.2379
 536  901.278
 537  1101.63
 538  1250.903
 539  1408.539
 540  1436.265
 541  1398.156
 542  1490.068
 543  1652.909
 544  1714.292
 545  1798.845
 546  1745.284
 547  1719.586
 548  1549.54
 549  1291.364
 550  931.838
 551  739.9873
 552  879.5875
 553  1107.807
 554  1352.98
 555  1412.322
 556  1517.83
 557  1651.649
 558  1761.074
 559  1869.141
 560  1898.762
 561  2061.868
 562  2058.707
 563  1657.294
 564  1275.582
 565  984.5575
 566  1114.386
 567  996.3677
 568  917.1884
 569  943.4376
 570  1171.016
 571  1376.093
 572  1423.164
 573  1464.174
 574  1498.31
 575  1559.484
 576  1763.834
 577  1791.453
 578  1825.903
 579  1720.108
 580  1568.603
 581  1315.032
 582  900.6223
 583  874.4059
 584  819.41
 585  956.8108
 586  955.6357
 587  954.053
 588  1078.077
 589  1317.427
 590  1665.778
 591  1865.256
 592  1969.696
 593  2233.339
 594  2377.536
 595  2406.611
 596  2190.708
 597  1966.278
 598  1899.231
 599  1736.113
 600  1767.858
 601  1802.157
 602  1816.211
 603  1773.916
 604  1853.772
 605  2149.295
 606  2345.952
 607  2434.073
 608  2457.709
 609  2408.998
 610  2303.032
 611  2072.017
 612  1860.824
 613  1638.706
 614  1394.186
 615  1194.49
 616  1136.888
 617  1037.769
 618  1028.371
 619  998.842
 620  1103.786
 621  1257.52
 622  1548.249
 623  1688.408
 624  1836.348
 625  2014.171
 626  2121.833
 627  2132.949
 628  2004.954
 629  1932.025
 630  1810.831
 631  1620.467
 632  1369.024
 633  1208.863
 634  1071.919
 635  1205.584
 636  1253.116
 637  1460.173
 638  1526.114
 639  1606.604
 640  1441.104
 641  1334.485
 642  1313.917
 643  1420.434
 644  1361.523
 645  1512.265
 646  1569.085
 647  1335.177
 648  1134.217
 649  1088.964
 650  1140.168
 651  984.5949
 652  1086.079
 653  1260.205
 654  1422.904
 655  1471.068
 656  1726.961
 657  1876.061
 658  2174.806
 659  2391.672
 660  2387.807
 661  2175.182
 662  1908.692
 663  1841.636
 664  1524.525
 665  1218.804
 666  1122.212
 667  1038.007
 668  974.2745
 669  839.617
 670  980.972
 671  1222.547
 672  1558.599
 673  1694.897
 674  1772
 675  1774.031
 676  1834.399
 677  1852.727
 678  1979.189
 679  1754.251
 680  1451.22
 681  1189.625
 682  1108.616
 683  938.1962
 684  918.8076
 685  1101.081
 686  1274.185
 687  1266.357
 688  1356.265
 689  1591.203
 690  1871.026
 691  2252.117
 692  2454.49
 693  2470.06
 694  2202.087
 695  2018.393
 696  1856.703
 697  1624.213
 698  1381.54
 699  1283
 700  1096.555
 701  1051.714
 702  864.8382
 703  945.381
 704  1071.229
 705  1269.761
 706  1472.83
 707  1521.637
 708  1833.891
 709  1849.602
 710  1897.208
 711  1731.629
 712  1550.733
 713  1428.223
 714  1242.809
 715  988.5973
 716  901.8179
 717  933.8645
 718  1099.107
 719  1121.563
 720  1325.192
 721  1478.561
 722  1616.199
 723  1812.672
 724  2023.836
 725  2064.591
 726  1963.588
 727  1710.144
 728  1689.742
 729  1608.317
 730  1487.616
 731  1356.419
 732  1169.277
 733  1047.101
 734  925.5659
 735  943.6965
 736  1066.323
 737  1156.076
 738  1365.821
 739  1635.821
 740  1775.49
 741  1926.18
 742  1943.207
 743  1962.914
 744  1784.885
 745  1577.002
 746  1462.054
 747  1138.028
 748  848.7196
 749  773.2881
 750  851.062
 751  1021.77
 752  1061.397
 753  1283.235
 754  1456.713
 755  1633.206
 756  1819.382
 757  1929.751
 758  2101.876
 759  2162.097
 760  2242.984
 761  2185.244
 762  1999.685
 763  1593.961
 764  1247.439
 765  970.4911
 766  800.3541
 767  768.3232
 768  953.5159
 769  1034.317
 770  1070.782
 771  1126.358
 772  1303.781
 773  1567.534
 774  1779.938
 775  1905.32
 776  1846.9
 777  1658.93
 778  1617.712
 779  1440.627
 780  1159.346
 781  1057.235
 782  1116.561
 783  1191.673
 784  1208.843
 785  1177.582
 786  1219.812
 787  1166.916
 788  1401.318
 789  1705.677
 790  1903.149
 791  2008.576
 792  2078.436
 793  2055.549
 794  1811.414
 795  1543.073
 796  1481.654
 797  1368.043
 798  1315.629
 799  1198.339
 800  1184.808
 801  1105.062
 802  1086.905
 803  1189.839
 804  1385.373
 805  1579.263
 806  1710.883
 807  1871.706
 808  1886.745
 809  1941.172
 810  1844.52
 811  1748.235
 812  1426.248
 813  1172.757
 814  1186.823
 815  1168.944
 816  992.5803
 817  859.3484
 818  997.7798
 819  1325.579
 820  1476.498
 821  1628.685
 822  1759.229
 823  2025.063
 824  2252.119
 825  2217.58
 826  2064.688
 827  1771.146
 828  1747.892
 829  1570.036
 830  1439.988
 831  1136.905
 832  934.0193
 833  963.6135
 834  1147.962
 835  1215.41
 836  1091.894
 837  1241.021
 838  1491.576
 839  1695.167
 840  1826.003
 841  2000.434
 842  1951.517
 843  1864.071
 844  1660.619
 845  1510.453
 846  1179.495
 847  1149.651
 848  1159.339
 849  1232.736
 850  1231.458
 851  1442.326
 852  1508.485
 853  1593.661
 854  1700.514
 855  1837.407
 856  1976.846
 857  2152.106
 858  2245.837
 859  2136.942
 860  1798.325
 861  1515.156
 862  1402.115
 863  1398.854
 864  1432.349
 865  1235.79
 866  1153.604
 867  1033.994
 868  1081.592
 869  1127.821
 870  1354.984
 871  1514.115
 872  1634.416
 873  1842.858
 874  1886.855
 875  1792.05
 876  1514.422
 877  1390.114
 878  1162.535
 879  976.2021
 880  906.5084
 881  959.205
 882  1003.797
 883  1030.602
 884  1121.818
 885  1202.371
 886  1326.831
 887  1556.395
 888  1850.245
 889  2147.795
 890  2249.2
 891  2155.756
 892  1920.86
 893  1765.723
 894  1778.35
 895  1712.756
 896  1352.667
 897  1112.063
 898  1057.188
 899  1117.116
 900  1118.07
 901  1075.524
 902  1141.535
 903  1186.762
 904  1256.118
 905  1452.183
 906  1650.573
 907  1879.123
 908  1874.05
 909  1741.44
 910  1459.276
 911  1086.618
 912  1001.237
 913  917.502
 914  908.1068
 915  889.0836
 916  1029.209
 917  1213.908
 918  1263.542
 919  1324.001
 920  1502.459
 921  1673.58
 922  1991.232
 923  2087.004
 924  2196.278
 925  2060.797
 926  1971.761
 927  1651.773
 928  1439.545
 929  1271.462
 930  1168.968
 931  1037.283
 932  1085.245
 933  1022.781
 934  1060.074
 935  1033.246
 936  1216.278
 937  1427.835
 938  1606.61
 939  1598.21
 940  1818.423
 941  1846.966
 942  1713.724
 943  1381.958
 944  1273.303
 945  1176.306
 946  971.6856
 947  967.0944
 948  1031.346
 949  1087.934
 950  1008.879
 951  1153.938
 952  1249.656
 953  1446.24
 954  1655.718
 955  1901.492
 956  2072.722
 957  2181.973
 958  2218.05
 959  2049.623
 960  1643.796
 961  1410.981
 962  1251.153
 963  1201.787
 964  1009.735
 965  910.7673
 966  1113.282
 967  1261.473
 968  1379.069
 969  1333.243
 970  1506.516
 971  1672.274
 972  1751.218
 973  1854.496
 974  1894.903
 975  1782.823
 976  1599.063
 977  1482.704
 978  1241.941
 979  968.3073
 980  816.6829
 981  940.2732
 982  1011.993
 983  1068.549
 984  1015.47
 985  1186.566
 986  1402.244
 987  1685.241
 988  1994.938
 989  2149.567
 990  2091.187
 991  1769.604
 992  1536.168
 993  1362.732
 994  1338.373
 995  1209.276
 996  1111.896
 997  960.4315
 998  846.5551
 999  865.5621
1000  1046.877
1001  1207.91
1002  1167.3
1003  1207.774
1004  1196.122
1005  1258.337
1006  1187.862
1007  1268.581
1008  1273.901
1009  1252.781
1010  1181.981
1011  961.1661
1012  825.0251
1013  902.6047
1014  929.669
1015  882.2269
1016  845.5626
1017  1060.903
1018  1344.922
1019  1670.527
1020  1945.819
1021  2029.503
1022  2040.044
1023  2011.857
