# Input file       =  1208426804.106366_cleaned.dat
# Candidate        =  PSR_0332+5434
# Telescope        =  AR
# Epoch_topo       =  58230.421563731084
# Epoch_bary       =  N/A
# T_sample         =  0.002
# Data Folded      =  7340032
# Data Avg         =  0.233097754968705
# Data StdDev      =  4.84008990526678 
# Profile Bins     =  1024
# Profile Avg      =  1669.60295626057 
# Profile StdDev   =  409.781574800963 
# Reduced chi-sqr  =  0.957
# Prob(Noise)      <  0.837   (~0.0 sigma)
# P_topo (ms)      =  714.554195587571  +/- 0.000329
# P'_topo (s/s)    =  -0                +/- 1.74e-10
# P''_topo (s/s^2) =  0                 +/- 7.67e-14
# P_bary (ms)      =  N/A
# P'_bary (s/s)    =  N/A
# P''_bary (s/s^2) =  N/A
# P_orb (s)        =  N/A
# asin(i)/c (s)    =  N/A
# eccentricity     =  N/A
# w (rad)          =  N/A
# T_peri           =  N/A
######################################################
   0  1854.901
   1  1831.592
   2  1889.851
   3  2005.005
   4  2049.572
   5  2058.099
   6  1970.104
   7  1906.198
   8  1875.585
   9  1932.402
  10  1897.06
  11  1878.947
  12  1890.399
  13  2100.254
  14  2100.911
  15  2020.251
  16  1956.415
  17  1966.472
  18  1967.216
  19  1914.334
  20  1856.898
  21  1881.405
  22  1866.561
  23  1854.315
  24  1896.247
  25  1878.931
  26  1844.689
  27  1887.593
  28  1886.77
  29  1942.587
  30  1927.056
  31  1933.889
  32  1906.595
  33  1923.654
  34  1833.16
  35  1896.921
  36  1853.688
  37  1842.604
  38  1693.197
  39  1754.203
  40  1737.701
  41  1786.788
  42  1694.725
  43  1851.903
  44  1854.549
  45  1891.872
  46  1746.599
  47  1762.539
  48  1725.196
  49  1747.352
  50  1808.14
  51  1833.299
  52  1907.238
  53  1866.646
  54  1930.772
  55  1858.747
  56  1841.965
  57  1774.916
  58  1667.723
  59  1623.393
  60  1526.36
  61  1639.434
  62  1728.119
  63  1796.934
  64  1783.35
  65  1805.518
  66  1709.678
  67  1537.797
  68  1478.49
  69  1652.681
  70  1703.535
  71  1749.233
  72  1676.355
  73  1658.755
  74  1634.663
  75  1628.273
  76  1638.874
  77  1690.952
  78  1711.07
  79  1658.219
  80  1675.023
  81  1688.34
  82  1766.018
  83  1823.813
  84  1773.643
  85  1622.331
  86  1619.1
  87  1589.892
  88  1583.791
  89  1630.466
  90  1738.89
  91  1800.38
  92  1772.448
  93  1802.951
  94  1837.61
  95  1665.512
  96  1605.626
  97  1568.868
  98  1728.509
  99  1693.825
 100  1662.369
 101  1655.038
 102  1769.036
 103  1791.021
 104  1673.179
 105  1615.967
 106  1601.631
 107  1642.794
 108  1691.556
 109  1783.571
 110  1699.513
 111  1651.249
 112  1593.752
 113  1805.781
 114  1833.456
 115  1767.543
 116  1639.093
 117  1710.011
 118  1786.77
 119  1890.816
 120  1763.424
 121  1721.888
 122  1654.445
 123  1748.028
 124  1799.08
 125  1804.526
 126  1870.062
 127  2044.265
 128  2050.781
 129  1991.51
 130  1894.473
 131  1904.092
 132  1898.617
 133  1936.336
 134  1954.094
 135  1965.841
 136  1922.597
 137  1933.662
 138  1873.733
 139  1919.538
 140  1965.103
 141  2082.664
 142  2185.418
 143  2142.593
 144  1980.165
 145  1808.683
 146  1739.413
 147  1732.068
 148  1885.812
 149  1923.804
 150  2050.316
 151  2014.472
 152  2004.922
 153  2001.051
 154  1953.294
 155  1880.013
 156  1929.886
 157  1856.184
 158  1757.7
 159  1628.485
 160  1730.49
 161  1846.29
 162  1868.468
 163  1846.156
 164  1927.414
 165  1867.842
 166  1801.589
 167  1761.786
 168  1745.144
 169  1834.221
 170  1828.276
 171  1991.393
 172  1914.702
 173  1915.209
 174  1848.46
 175  1971.728
 176  1950.638
 177  1859.581
 178  1862.861
 179  1930.246
 180  1929.804
 181  1904.214
 182  1890.091
 183  1761.874
 184  1720.602
 185  1715.807
 186  1667.877
 187  1644.916
 188  1704.587
 189  1844.797
 190  1804.285
 191  1732.754
 192  1673.082
 193  1677.243
 194  1748.065
 195  1612.548
 196  1610.303
 197  1432.939
 198  1462.667
 199  1443.15
 200  1574.88
 201  1614.026
 202  1805.715
 203  1888.153
 204  1989.481
 205  1765.09
 206  1619.616
 207  1575.817
 208  1653.781
 209  1663.615
 210  1745.735
 211  1777.326
 212  1801.156
 213  1659.292
 214  1613.935
 215  1658.457
 216  1755.522
 217  1698.278
 218  1770.432
 219  1839.342
 220  1913.19
 221  1790.467
 222  1763.101
 223  1801.538
 224  1931.515
 225  1825.923
 226  1823.311
 227  1826.888
 228  1805.334
 229  1746.176
 230  1662.624
 231  1652.048
 232  1693.677
 233  1771.475
 234  1857.263
 235  1923.652
 236  1757.36
 237  1677.454
 238  1594.276
 239  1622.555
 240  1655.897
 241  1746.177
 242  1767.301
 243  1636.166
 244  1511.958
 245  1468.032
 246  1460.791
 247  1455.066
 248  1481.957
 249  1505.68
 250  1521.04
 251  1458.288
 252  1389.166
 253  1094.691
 254  1075.114
 255  1128.433
 256  1349.03
 257  1320.627
 258  1384.087
 259  1368.342
 260  1338.283
 261  1252.036
 262  1318.035
 263  1338.829
 264  1300.299
 265  1292.768
 266  1420.779
 267  1399.777
 268  1335.595
 269  1234.641
 270  1283.105
 271  1367.568
 272  1431.859
 273  1531.439
 274  1488.745
 275  1365.726
 276  1340.99
 277  1355.472
 278  1390.139
 279  1296.145
 280  1372.5
 281  1479.795
 282  1566.244
 283  1544.523
 284  1580.197
 285  1678.548
 286  1715.763
 287  1590.305
 288  1656.166
 289  1724.312
 290  1811.963
 291  1807.436
 292  1791.344
 293  1778.299
 294  1751.904
 295  1737.343
 296  1662.367
 297  1582.488
 298  1573.638
 299  1615.861
 300  1670.196
 301  1632.179
 302  1566.167
 303  1595.579
 304  1588.57
 305  1652.99
 306  1723.715
 307  1833.512
 308  1837.372
 309  1791.677
 310  1694.43
 311  1627.075
 312  1613.702
 313  1674.538
 314  1713.147
 315  1770.546
 316  1697.339
 317  1726.991
 318  1645.784
 319  1623.932
 320  1529.266
 321  1539.968
 322  1568.785
 323  1669.684
 324  1784.734
 325  1791.851
 326  1684.235
 327  1613.908
 328  1617.967
 329  1628.42
 330  1589.581
 331  1655.734
 332  1662.278
 333  1625.102
 334  1509.863
 335  1563.223
 336  1760.882
 337  1765.245
 338  1644.914
 339  1514.049
 340  1540.929
 341  1567.59
 342  1547.013
 343  1515.235
 344  1550.676
 345  1522.898
 346  1568.31
 347  1516.647
 348  1532.829
 349  1425.742
 350  1444.32
 351  1437.586
 352  1437.007
 353  1506.065
 354  1620.948
 355  1694.125
 356  1651.589
 357  1612.394
 358  1531.188
 359  1528.751
 360  1477.499
 361  1601.346
 362  1660.573
 363  1616.419
 364  1469.626
 365  1524.996
 366  1524.516
 367  1526.966
 368  1452.757
 369  1435.877
 370  1553.834
 371  1506.615
 372  1348.406
 373  1209.544
 374  1363.958
 375  1503.819
 376  1519.516
 377  1554.498
 378  1623.572
 379  1632.334
 380  1608.07
 381  1605.02
 382  1500.653
 383  1456.583
 384  1350.156
 385  1311.465
 386  1330.677
 387  1452.579
 388  1633.756
 389  1582.009
 390  1617.989
 391  1522.598
 392  1531.111
 393  1461.179
 394  1297.974
 395  1344.871
 396  1310.552
 397  1479.342
 398  1538.439
 399  1634.31
 400  1548.112
 401  1482.417
 402  1357.622
 403  1236.435
 404  1211.075
 405  1290.835
 406  1375.234
 407  1322.869
 408  1308.977
 409  1269.774
 410  1378.599
 411  1451.731
 412  1362.674
 413  1251.964
 414  1158.784
 415  1230.281
 416  1282.602
 417  1348.997
 418  1322.416
 419  1392.596
 420  1366.793
 421  1410.885
 422  1429.732
 423  1363.499
 424  1286.176
 425  1303.059
 426  1442.983
 427  1526.666
 428  1517.193
 429  1617.644
 430  1683.006
 431  1633.294
 432  1659.615
 433  1643.784
 434  1640.212
 435  1526.505
 436  1403.625
 437  1397.402
 438  1319.365
 439  1348.951
 440  1326.784
 441  1396.364
 442  1582.656
 443  1707.122
 444  1691.775
 445  1614.701
 446  1622.333
 447  1719.333
 448  1750.98
 449  1769.499
 450  1747.358
 451  1652.016
 452  1457.075
 453  1391.15
 454  1503.733
 455  1486.812
 456  1600.574
 457  1585.433
 458  1629.857
 459  1520.344
 460  1623.924
 461  1673.106
 462  1664.037
 463  1606.835
 464  1648.265
 465  1671.716
 466  1568.151
 467  1485.803
 468  1530.06
 469  1640.146
 470  1666.766
 471  1638.374
 472  1624.931
 473  1595.19
 474  1645.658
 475  1659.134
 476  1659.432
 477  1613.987
 478  1676.034
 479  1843.883
 480  1917.479
 481  1854.731
 482  1773.663
 483  1705.915
 484  1684.69
 485  1729.005
 486  1794.744
 487  1794.708
 488  1815.516
 489  1826.705
 490  1705.312
 491  1561.698
 492  1411.092
 493  1440.777
 494  1514.443
 495  1683.928
 496  1677.655
 497  1724.836
 498  1716.835
 499  1662.637
 500  1643.474
 501  1631.474
 502  1643.059
 503  1657.012
 504  1720.501
 505  1836.512
 506  1787.437
 507  1828.177
 508  1857.905
 509  1874.062
 510  1805.009
 511  1738.317
 512  1706.104
 513  1775.726
 514  1914.562
 515  1860.09
 516  1741.482
 517  1645.163
 518  1592.581
 519  1484.737
 520  1441.257
 521  1579.887
 522  1732.708
 523  1787.187
 524  1748.195
 525  1607.5
 526  1554.477
 527  1545.776
 528  1566.163
 529  1551.029
 530  1407.703
 531  1314.899
 532  1411.58
 533  1366.976
 534  1207.446
 535  1058.572
 536  1237.425
 537  1364.815
 538  1550.879
 539  1575.719
 540  1526.553
 541  1441.78
 542  1322.18
 543  1315.574
 544  1396.593
 545  1523.936
 546  1526.487
 547  1458.476
 548  1403.944
 549  1351.242
 550  1436.744
 551  1399.36
 552  1424.331
 553  1473.963
 554  1494.997
 555  1573.174
 556  1492.447
 557  1481.49
 558  1473.589
 559  1485.273
 560  1426.977
 561  1365.35
 562  1334.182
 563  1362.564
 564  1402.911
 565  1505.726
 566  1487.573
 567  1447.087
 568  1451.611
 569  1493.388
 570  1627.329
 571  1630.958
 572  1626.402
 573  1538.7
 574  1398.856
 575  1367.786
 576  1413.036
 577  1441.691
 578  1485.712
 579  1515.87
 580  1513.433
 581  1655.195
 582  1704.808
 583  1799.364
 584  1795.32
 585  1890.304
 586  1940.301
 587  2035.759
 588  2036.756
 589  1962.436
 590  1857.762
 591  1794.201
 592  1930.607
 593  2015.686
 594  2120.308
 595  2125.632
 596  2307.008
 597  2428.696
 598  2573.457
 599  2574.217
 600  2668.016
 601  2860.109
 602  3026.886
 603  3082.741
 604  2946.241
 605  2712.344
 606  2554.224
 607  2348.943
 608  2156.841
 609  1983.328
 610  1771.697
 611  1781.487
 612  1797.194
 613  1860.698
 614  1751.633
 615  1753.937
 616  1668.723
 617  1679.494
 618  1623.559
 619  1748.381
 620  1754.867
 621  1631.142
 622  1620.35
 623  1739.153
 624  1928.745
 625  1924.631
 626  1887.628
 627  1823.739
 628  1719.151
 629  1695.538
 630  1758.3
 631  1833.174
 632  1797.196
 633  1747.245
 634  1820.284
 635  1886.569
 636  1912.209
 637  1767.088
 638  1767.859
 639  1680.67
 640  1658.343
 641  1544.171
 642  1607.834
 643  1675.38
 644  1754.866
 645  1782.906
 646  1816.609
 647  1735.701
 648  1670.914
 649  1571.797
 650  1478.03
 651  1525.895
 652  1550.187
 653  1493.095
 654  1484.403
 655  1600.443
 656  1799.73
 657  1781.831
 658  1776.144
 659  1721.641
 660  1704.508
 661  1705.2
 662  1676.562
 663  1593.749
 664  1455.92
 665  1518.751
 666  1594.778
 667  1631.919
 668  1603.303
 669  1562.925
 670  1543.149
 671  1561.138
 672  1486.441
 673  1530.179
 674  1486.832
 675  1511.432
 676  1429.98
 677  1377.812
 678  1442.403
 679  1541.609
 680  1633.42
 681  1588.885
 682  1506.007
 683  1405.601
 684  1385.762
 685  1388.001
 686  1375.946
 687  1342.162
 688  1328.693
 689  1330.108
 690  1343.393
 691  1317.203
 692  1382.565
 693  1458.864
 694  1433.087
 695  1323.757
 696  1295.405
 697  1314.504
 698  1325.001
 699  1220.267
 700  1224.132
 701  1354.355
 702  1453.715
 703  1325.078
 704  1250.846
 705  1340.431
 706  1484.798
 707  1493.721
 708  1503.864
 709  1560.154
 710  1585.845
 711  1618.565
 712  1505.886
 713  1346.193
 714  1233.651
 715  1333.198
 716  1408.561
 717  1265.959
 718  1321.607
 719  1501.135
 720  1681.187
 721  1725.787
 722  1735.434
 723  1728.371
 724  1720.577
 725  1682.757
 726  1652.938
 727  1641.399
 728  1597.551
 729  1694.352
 730  1809.547
 731  2004.909
 732  1927.353
 733  1808.258
 734  1769.093
 735  1895.714
 736  1978.551
 737  1978.913
 738  1967.907
 739  1869.39
 740  1836.458
 741  1761.575
 742  1743.551
 743  1753.9
 744  1837.489
 745  1863.162
 746  1963.365
 747  1983.247
 748  2035.028
 749  2027.519
 750  1966.652
 751  1915.889
 752  1944.738
 753  1955.191
 754  1825.776
 755  1754.712
 756  1824.334
 757  1749.685
 758  1745.106
 759  1802.641
 760  1944.742
 761  1927.085
 762  1897.353
 763  1845.824
 764  1801.529
 765  1724.484
 766  1758.881
 767  1866.678
 768  1825.817
 769  1709.296
 770  1637.333
 771  1587
 772  1482.208
 773  1477.121
 774  1607.596
 775  1693.447
 776  1679.944
 777  1659.253
 778  1661.624
 779  1646.781
 780  1540.335
 781  1515.497
 782  1481.04
 783  1645.514
 784  1740.211
 785  1678.308
 786  1574.487
 787  1632.383
 788  1625.799
 789  1748.153
 790  1723.328
 791  1794.076
 792  1764.279
 793  1749.064
 794  1807.283
 795  1748.601
 796  1796.789
 797  1735.749
 798  1838.905
 799  1846.101
 800  1824.363
 801  1688.001
 802  1696.117
 803  1674.486
 804  1822.286
 805  1816.288
 806  1739.62
 807  1630.696
 808  1517.93
 809  1554.937
 810  1490.766
 811  1517.726
 812  1512.189
 813  1510.657
 814  1533.487
 815  1425.606
 816  1333.167
 817  1264.265
 818  1263.207
 819  1274.283
 820  1295.145
 821  1335.023
 822  1429.719
 823  1340.66
 824  1512.104
 825  1504.566
 826  1523.379
 827  1391.446
 828  1384.273
 829  1462.351
 830  1541.3
 831  1607.316
 832  1601.861
 833  1500.78
 834  1448.935
 835  1488.192
 836  1508.876
 837  1548.291
 838  1523.565
 839  1650.765
 840  1707.511
 841  1647.54
 842  1602.731
 843  1584.785
 844  1582.401
 845  1644.125
 846  1655.424
 847  1597.509
 848  1497.805
 849  1586.644
 850  1705.526
 851  1642.592
 852  1507.72
 853  1488.895
 854  1544.047
 855  1536.394
 856  1566.033
 857  1609.773
 858  1599.823
 859  1629.142
 860  1627.155
 861  1565.247
 862  1630.855
 863  1594.444
 864  1652.4
 865  1613.99
 866  1631.534
 867  1638.93
 868  1562
 869  1679.689
 870  1699.958
 871  1733.297
 872  1590.637
 873  1663.184
 874  1717.62
 875  1780.512
 876  1783.942
 877  1866.497
 878  1775.734
 879  1643.31
 880  1541.362
 881  1522.738
 882  1597.449
 883  1653.724
 884  1741.094
 885  1861.83
 886  1850.88
 887  1887.246
 888  1896.617
 889  1967.973
 890  1952.455
 891  1802.333
 892  1805.753
 893  1884.073
 894  1926.973
 895  1874.901
 896  1872.16
 897  1930.255
 898  1973.431
 899  2085.016
 900  2057.411
 901  2029.558
 902  1977.046
 903  1912.448
 904  1883.793
 905  1873.318
 906  1852.594
 907  1891.453
 908  1807.932
 909  1886.648
 910  1789.848
 911  1791.402
 912  1710.455
 913  1709.501
 914  1682.958
 915  1748.833
 916  1743.794
 917  1693.241
 918  1583.221
 919  1588.378
 920  1692.982
 921  1769.33
 922  1743.322
 923  1649.818
 924  1772.386
 925  1808.882
 926  1837.906
 927  1889.546
 928  1819.54
 929  1831.482
 930  1777.11
 931  1761.312
 932  1825.718
 933  1956.427
 934  1949.522
 935  1962.441
 936  1798.637
 937  1858.746
 938  1775.898
 939  1871.713
 940  1910.919
 941  1994.613
 942  1925.169
 943  1735.461
 944  1709.506
 945  1901.279
 946  1907.799
 947  1800.102
 948  1628.291
 949  1611.49
 950  1528.572
 951  1469.936
 952  1446.869
 953  1543.669
 954  1572.934
 955  1569.625
 956  1479.291
 957  1447.223
 958  1584.796
 959  1663.578
 960  1734.396
 961  1689.553
 962  1664.677
 963  1688.214
 964  1693.197
 965  1605.624
 966  1383.493
 967  1260.453
 968  1387.906
 969  1392.859
 970  1381.789
 971  1254.414
 972  1389.574
 973  1466.087
 974  1621.381
 975  1587.884
 976  1611.979
 977  1664.905
 978  1590.51
 979  1445.657
 980  1399.546
 981  1487.207
 982  1586.223
 983  1761.957
 984  1794.257
 985  1825.823
 986  1635.185
 987  1654.263
 988  1558.039
 989  1640.622
 990  1680.201
 991  1782.719
 992  1838.89
 993  1806.355
 994  1745.772
 995  1775.832
 996  1853.673
 997  1853.463
 998  1784.955
 999  1718.3
1000  1683.832
1001  1618.719
1002  1452.106
1003  1425.734
1004  1485.16
1005  1655.016
1006  1609.984
1007  1632.968
1008  1721.398
1009  1810.891
1010  1945.899
1011  1838.32
1012  1816.208
1013  1737.219
1014  1735.199
1015  1724.979
1016  1717.939
1017  1786.249
1018  1732.212
1019  1721.171
1020  1755.441
1021  1737.381
1022  1798.842
1023  1874.581
