# Input file       =  1208082048.119238_cleaned.dat
# Candidate        =  PSR_0332+5434
# Telescope        =  AR
# Epoch_topo       =  58226.431332398584
# Epoch_bary       =  N/A
# T_sample         =  0.002
# Data Folded      =  7340032
# Data Avg         =  0.245984287178933
# Data StdDev      =  5.60547067113564 
# Profile Bins     =  1024
# Profile Avg      =  1763.32805991017 
# Profile StdDev   =  474.58180407332  
# Reduced chi-sqr  =  1.576
# Prob(Noise)      <  3.79e-29   (~11.1 sigma)
# P_topo (ms)      =  714.557475931464  +/- 0.000184
# P'_topo (s/s)    =  -0                +/- 9.72e-11
# P''_topo (s/s^2) =  0                 +/- 4.29e-14
# P_bary (ms)      =  N/A
# P'_bary (s/s)    =  N/A
# P''_bary (s/s^2) =  N/A
# P_orb (s)        =  N/A
# asin(i)/c (s)    =  N/A
# eccentricity     =  N/A
# w (rad)          =  N/A
# T_peri           =  N/A
######################################################
   0  1959.067
   1  1823.742
   2  1881.878
   3  1878.619
   4  1871.146
   5  1753.427
   6  1677.422
   7  1693.874
   8  1800.435
   9  1929.032
  10  1934.324
  11  1827.48
  12  1822.85
  13  1929.935
  14  2027.068
  15  2073.953
  16  2091.599
  17  2062.573
  18  2014.927
  19  1925.528
  20  1925.747
  21  1972.346
  22  2053.187
  23  2021.017
  24  1899.95
  25  1812.255
  26  1721.903
  27  1713.97
  28  1763.825
  29  1776.852
  30  1856.234
  31  1915.77
  32  1969.436
  33  1995.172
  34  2019.585
  35  1946.64
  36  1907.884
  37  1861.688
  38  1880.018
  39  1848.698
  40  1802.446
  41  1795.514
  42  1752.074
  43  1812.107
  44  1828.865
  45  1789.907
  46  1767.347
  47  1763.332
  48  1809.263
  49  1845.804
  50  1853.445
  51  1806.282
  52  1712.302
  53  1681.281
  54  1712.818
  55  1827.007
  56  1817.863
  57  1708.285
  58  1655.33
  59  1724.507
  60  1669.864
  61  1695.448
  62  1659.191
  63  1755.714
  64  1548.621
  65  1464.891
  66  1537.63
  67  1404.842
  68  1350.479
  69  1295.117
  70  1494.633
  71  1560.236
  72  1726.611
  73  1723.072
  74  1707.074
  75  1627.829
  76  1623.419
  77  1589.241
  78  1566.01
  79  1575.911
  80  1572.365
  81  1599.397
  82  1717.054
  83  1807.524
  84  1973.566
  85  1962.773
  86  1999.43
  87  2000.787
  88  1990.499
  89  1899.65
  90  1834.381
  91  1833.218
  92  1899.431
  93  1830.795
  94  1865.865
  95  1695.235
  96  1814.739
  97  1799.961
  98  1917.062
  99  1895.392
 100  1776.44
 101  1801.65
 102  1698.073
 103  1781.107
 104  1814.245
 105  1861.679
 106  1990.296
 107  2018.05
 108  2114.392
 109  2075.231
 110  2139.832
 111  2163.166
 112  2128.653
 113  2095.715
 114  2147.23
 115  2231.67
 116  2160.594
 117  1986.873
 118  1997.149
 119  2122.359
 120  2272.447
 121  2404.835
 122  2503.874
 123  2449.734
 124  2463.513
 125  2511.569
 126  2561.184
 127  2463.515
 128  2420.343
 129  2486.352
 130  2587.629
 131  2540.206
 132  2519.535
 133  2377.321
 134  2412.067
 135  2390.366
 136  2461.022
 137  2411.324
 138  2409.74
 139  2465.627
 140  2491.715
 141  2347.373
 142  2360.656
 143  2413.93
 144  2367.26
 145  2240.83
 146  2244.016
 147  2254.319
 148  2216.807
 149  2129.985
 150  2054.86
 151  2148.492
 152  2250.953
 153  2394.179
 154  2361.333
 155  2237.888
 156  2200.839
 157  2093.759
 158  2148.147
 159  2147.298
 160  2138.077
 161  2013.209
 162  1821.276
 163  1923.602
 164  1915.071
 165  1923.957
 166  1837.592
 167  2019.051
 168  2189.018
 169  2185.53
 170  1987.126
 171  2000.253
 172  1996.847
 173  1972.37
 174  1935.938
 175  1900.448
 176  1872.802
 177  1874.131
 178  1948.668
 179  1956.388
 180  1992.323
 181  1808.684
 182  1907.116
 183  1934.44
 184  2110.85
 185  2170.96
 186  2101.473
 187  2025.567
 188  2092.308
 189  2043.748
 190  1878.698
 191  1709.35
 192  1723.042
 193  1794.972
 194  1966.311
 195  2095.71
 196  2027.999
 197  1890.334
 198  1834.341
 199  1835.935
 200  1862.666
 201  1948.068
 202  1913.814
 203  1823.531
 204  1681.113
 205  1584.765
 206  1401.863
 207  1369.649
 208  1387.296
 209  1541.145
 210  1563.09
 211  1653.526
 212  1547.556
 213  1599.842
 214  1488.149
 215  1530.764
 216  1496.204
 217  1475.317
 218  1548.689
 219  1581.235
 220  1540.175
 221  1490.684
 222  1374.93
 223  1479.353
 224  1471.622
 225  1624.917
 226  1629.5
 227  1726.791
 228  1622.432
 229  1410.269
 230  1247.057
 231  1213.191
 232  1242.676
 233  1338.785
 234  1399.467
 235  1520.011
 236  1420.082
 237  1454.431
 238  1416.944
 239  1412.667
 240  1357.152
 241  1376.849
 242  1559.479
 243  1583.663
 244  1498.688
 245  1441.069
 246  1402.135
 247  1366.435
 248  1280.344
 249  1299.526
 250  1350.487
 251  1322.693
 252  1407.351
 253  1499.093
 254  1585.619
 255  1750.093
 256  1764.507
 257  1810.614
 258  1808.019
 259  1875.338
 260  1946.405
 261  2045.007
 262  2044.012
 263  1976.191
 264  1896.671
 265  1842.491
 266  1938.539
 267  2011.408
 268  1906.618
 269  1922.116
 270  1954.68
 271  2128.834
 272  2100.91
 273  2061.225
 274  2012.762
 275  2116.675
 276  2136.91
 277  2166.55
 278  2004.662
 279  2013.012
 280  1884.761
 281  2012.792
 282  2190.35
 283  2355.909
 284  2180.005
 285  2104.628
 286  2075.354
 287  2097.72
 288  2108.835
 289  2094.829
 290  2053.789
 291  1997.823
 292  1994.509
 293  1980.406
 294  1967.12
 295  1832.752
 296  1934.345
 297  1831.886
 298  1849.076
 299  1680.237
 300  1693.061
 301  1804.555
 302  1855.26
 303  1926.305
 304  1886.371
 305  1770.914
 306  1602.525
 307  1547.568
 308  1527.446
 309  1444.985
 310  1442.001
 311  1505.14
 312  1532.316
 313  1562.64
 314  1509.636
 315  1479.881
 316  1556.134
 317  1642.949
 318  1669.838
 319  1652.631
 320  1646.773
 321  1650.855
 322  1558.953
 323  1590.29
 324  1494.135
 325  1502.828
 326  1479.234
 327  1463.729
 328  1442.224
 329  1363.74
 330  1449.506
 331  1511.028
 332  1583.325
 333  1542.14
 334  1445.642
 335  1335.134
 336  1381.886
 337  1510.871
 338  1608.423
 339  1636.88
 340  1613.2
 341  1649.683
 342  1578.241
 343  1485.226
 344  1354.487
 345  1269.685
 346  1248.625
 347  1244.027
 348  1373.294
 349  1351.313
 350  1326.309
 351  1305.961
 352  1349.903
 353  1542.18
 354  1619.412
 355  1670.01
 356  1531.528
 357  1371.697
 358  1341.707
 359  1288.334
 360  1303.923
 361  1240.922
 362  1349.92
 363  1333.517
 364  1356.013
 365  1271.375
 366  1216.405
 367  1235.396
 368  1377.34
 369  1467.431
 370  1430.21
 371  1353.936
 372  1418.206
 373  1491.237
 374  1494.67
 375  1476.85
 376  1476.929
 377  1479.931
 378  1320.896
 379  1282.215
 380  1383.078
 381  1505.236
 382  1612.772
 383  1619.647
 384  1644.805
 385  1496.423
 386  1535.048
 387  1445.712
 388  1496.44
 389  1567.366
 390  1676.961
 391  1719.349
 392  1840.664
 393  1969.727
 394  1944.675
 395  1825.276
 396  1776.687
 397  1918.387
 398  1958.269
 399  1878.965
 400  1952.565
 401  1873.779
 402  1850.646
 403  1941.248
 404  2052.427
 405  2078.67
 406  2021.92
 407  2036.687
 408  2078.647
 409  2086.592
 410  2077.216
 411  2160.898
 412  2065.928
 413  1979.605
 414  1970.118
 415  2049.459
 416  2117.694
 417  2143.787
 418  2150.466
 419  2243.75
 420  2242.352
 421  2247.854
 422  2086.358
 423  2088.365
 424  2092.497
 425  2037.224
 426  1831.392
 427  1818.576
 428  1898.729
 429  1932.122
 430  1882.757
 431  1968.241
 432  2017.225
 433  2049.202
 434  2050.868
 435  2031.073
 436  1906.198
 437  1826.218
 438  1851.346
 439  1878.15
 440  1898.212
 441  1812.068
 442  1697.275
 443  1559.565
 444  1550.039
 445  1550.978
 446  1673.752
 447  1689.059
 448  1738.094
 449  1745.219
 450  1790.94
 451  1808.702
 452  1834.698
 453  2001.703
 454  1903.972
 455  1774.241
 456  1617.835
 457  1609.867
 458  1623.409
 459  1692.511
 460  1796.417
 461  1915.729
 462  1837.271
 463  1719.924
 464  1599.026
 465  1589.32
 466  1485.146
 467  1520.602
 468  1575.753
 469  1537.274
 470  1375.302
 471  1260.627
 472  1272.47
 473  1329.73
 474  1293.767
 475  1222.95
 476  1261.18
 477  1335.438
 478  1219.905
 479  1116.135
 480  1062.78
 481  1128.425
 482  1213.347
 483  1251.948
 484  1166.023
 485  1143.055
 486  1056.447
 487  1099.756
 488  1120.633
 489  1120.737
 490  1045.486
 491  1054.747
 492  1175.387
 493  1257.822
 494  1172.15
 495  1201.623
 496  1223.527
 497  1203.179
 498  1129.03
 499  1026.48
 500  1075.021
 501  1067.23
 502  1124.487
 503  1068.588
 504  1158.237
 505  1222.504
 506  1248.113
 507  1170.412
 508  1143.474
 509  1210.055
 510  1153.228
 511  1152.583
 512  1132.752
 513  1236.566
 514  1177.752
 515  1152.342
 516  1081.891
 517  1062.106
 518  1042.956
 519  1136.862
 520  1368.271
 521  1407.272
 522  1400.632
 523  1312.001
 524  1376.932
 525  1439.861
 526  1406.88
 527  1303.264
 528  1370.113
 529  1369.729
 530  1460.577
 531  1553.339
 532  1592.672
 533  1538.796
 534  1396.378
 535  1352.65
 536  1294.31
 537  1277.998
 538  1434.561
 539  1392.652
 540  1356.642
 541  1289.513
 542  1260.731
 543  1340.526
 544  1404.221
 545  1612.953
 546  1617.599
 547  1658.472
 548  1774.235
 549  1770.8
 550  1789.233
 551  1672.659
 552  1758.016
 553  1797.097
 554  1778.623
 555  1726.589
 556  1733.418
 557  1660.837
 558  1621.232
 559  1688.989
 560  1806.909
 561  1865.401
 562  1872.767
 563  1976.084
 564  1989.761
 565  1992.011
 566  1961.028
 567  1995.743
 568  1958.891
 569  1862.33
 570  1783.172
 571  1860.875
 572  1915.577
 573  1847.733
 574  1803.698
 575  1887.265
 576  1954.796
 577  1971.166
 578  1994.699
 579  2078.181
 580  2062.157
 581  2069.795
 582  2061.586
 583  2062.604
 584  2023.12
 585  1988.131
 586  2110.374
 587  2166.245
 588  2187.851
 589  2155.897
 590  2181.507
 591  2146.333
 592  2055.554
 593  2048
 594  2182.437
 595  2190.577
 596  2117.311
 597  2021.024
 598  2237.816
 599  2439.005
 600  2576.595
 601  2628.712
 602  2792.917
 603  2894.94
 604  2907.068
 605  2748.346
 606  2515.136
 607  2347.032
 608  2141.729
 609  2107.304
 610  2088.733
 611  2093.37
 612  2091.93
 613  2010.269
 614  2034.29
 615  1894.257
 616  1830.846
 617  1802.199
 618  1836.412
 619  1916.219
 620  1886.724
 621  1830.575
 622  1673.799
 623  1768.088
 624  1933.096
 625  2055.082
 626  1913.176
 627  1747.106
 628  1760.905
 629  1794.033
 630  1791.854
 631  1785.016
 632  1686.003
 633  1741.708
 634  1702.506
 635  1624.569
 636  1556.569
 637  1553.034
 638  1654.259
 639  1649.715
 640  1610.399
 641  1399.712
 642  1304.038
 643  1390.684
 644  1447.311
 645  1440.727
 646  1423.158
 647  1451.495
 648  1391.856
 649  1352.076
 650  1277.693
 651  1202.756
 652  1076.961
 653  1092.951
 654  1287.999
 655  1340.723
 656  1230.498
 657  1106.607
 658  1187.942
 659  1257.318
 660  1129.345
 661  1021.703
 662  1010.599
 663  1151.022
 664  1246.748
 665  1133.102
 666  1135.069
 667  1167.568
 668  1302.914
 669  1367.987
 670  1289.562
 671  1116.031
 672  941.4294
 673  1149.239
 674  1290.786
 675  1382.05
 676  1337.804
 677  1361.354
 678  1353.689
 679  1317.452
 680  1428.308
 681  1571.454
 682  1611.347
 683  1634.86
 684  1644.319
 685  1641.211
 686  1569.974
 687  1590.053
 688  1610.59
 689  1615.48
 690  1609.854
 691  1583.822
 692  1491.86
 693  1402.817
 694  1435.963
 695  1555.02
 696  1660.047
 697  1716.852
 698  1808.419
 699  1843.923
 700  1857.899
 701  1824.052
 702  1825.352
 703  1820.949
 704  1739.45
 705  1874.072
 706  2047.597
 707  2187.074
 708  2241.683
 709  2175.365
 710  2157.614
 711  2094.843
 712  2061.589
 713  2132.787
 714  2096.889
 715  2148.794
 716  2171.319
 717  2153.122
 718  1973.401
 719  2014.772
 720  2060.369
 721  2227.035
 722  2178.594
 723  2247.83
 724  2235.121
 725  2236.547
 726  2239.345
 727  2251.12
 728  2250.263
 729  2271.267
 730  2243.398
 731  2254.715
 732  2148.447
 733  2054.336
 734  2006.511
 735  2086.19
 736  2324.499
 737  2353.425
 738  2362.288
 739  2203.963
 740  2133.425
 741  2133.657
 742  2222.362
 743  2231.532
 744  2035.841
 745  1819.971
 746  1828.358
 747  1930.108
 748  1987.531
 749  1904.012
 750  1953.673
 751  2011.481
 752  2019.372
 753  2085.865
 754  1970.233
 755  1885.168
 756  1823.028
 757  1867.118
 758  1769.939
 759  1690.767
 760  1613.035
 761  1698.244
 762  1692.41
 763  1687.965
 764  1748.995
 765  1895.805
 766  2018.418
 767  2095.214
 768  2056.685
 769  1938.766
 770  1789.414
 771  1809.457
 772  1917.848
 773  1910.922
 774  1868.566
 775  1802.227
 776  1747.505
 777  1786.1
 778  1673.011
 779  1783.074
 780  1774.589
 781  1691.978
 782  1602.704
 783  1672.493
 784  1731.342
 785  1703.151
 786  1639.79
 787  1672.208
 788  1538.119
 789  1570.304
 790  1469.478
 791  1565.128
 792  1518.452
 793  1431.099
 794  1384.944
 795  1440.35
 796  1581.381
 797  1610.958
 798  1593.264
 799  1534.084
 800  1613.895
 801  1725.137
 802  1682.28
 803  1699.112
 804  1723.665
 805  1806.746
 806  1709.487
 807  1665.761
 808  1617.823
 809  1606.899
 810  1606.126
 811  1555.42
 812  1391.781
 813  1328.823
 814  1449.567
 815  1499.673
 816  1487.64
 817  1457.443
 818  1481.781
 819  1548.796
 820  1581.746
 821  1602.31
 822  1527.305
 823  1458.999
 824  1284.925
 825  1228.697
 826  1199.308
 827  1299.395
 828  1369.045
 829  1511.282
 830  1597.909
 831  1621.361
 832  1582.32
 833  1625.374
 834  1606.578
 835  1602.442
 836  1666.491
 837  1751.725
 838  1794.461
 839  1727.904
 840  1727.954
 841  1808.59
 842  1818.756
 843  1784.189
 844  1756.24
 845  1772.358
 846  1797.322
 847  1767.468
 848  1752.949
 849  1824.472
 850  1913.354
 851  1935.544
 852  1909.981
 853  1982.964
 854  2032.073
 855  1991.798
 856  1919.148
 857  1909.053
 858  2003.659
 859  2058.843
 860  1962.66
 861  1888.531
 862  1974.171
 863  2127.116
 864  2229.391
 865  2171.686
 866  2150.495
 867  2129.701
 868  2151.007
 869  2170.828
 870  2147.093
 871  1966.38
 872  1913.607
 873  1891.222
 874  2073.632
 875  2070.302
 876  2157.803
 877  2016.358
 878  1990.891
 879  1953.703
 880  2023.163
 881  1979.349
 882  1904.006
 883  1857.125
 884  1811.914
 885  1780.85
 886  1769.431
 887  1819.421
 888  1862.788
 889  1901.863
 890  1794.601
 891  1622.696
 892  1623.511
 893  1599.117
 894  1725.746
 895  1751.184
 896  1827.079
 897  1798.531
 898  1771.58
 899  1732.223
 900  1555.72
 901  1561.638
 902  1558.662
 903  1586.607
 904  1556.368
 905  1548.302
 906  1573.815
 907  1570.509
 908  1621.926
 909  1512.483
 910  1475.16
 911  1489.111
 912  1443.87
 913  1525.132
 914  1661.146
 915  1671.711
 916  1446.973
 917  1360.293
 918  1427.134
 919  1552.957
 920  1531.33
 921  1550.483
 922  1635.499
 923  1615.625
 924  1666.153
 925  1563.208
 926  1563.776
 927  1521.867
 928  1634.977
 929  1639.21
 930  1611.164
 931  1594.833
 932  1699.51
 933  1573.111
 934  1428.277
 935  1350.403
 936  1380.717
 937  1371.997
 938  1494.802
 939  1661.198
 940  1730.875
 941  1624.068
 942  1513.314
 943  1600.385
 944  1729.781
 945  1687.72
 946  1678.664
 947  1486.936
 948  1448.584
 949  1380.67
 950  1528.809
 951  1652.962
 952  1636.161
 953  1726.758
 954  1700.878
 955  1635.491
 956  1544.402
 957  1612.616
 958  1576.37
 959  1574.17
 960  1488.301
 961  1608.142
 962  1697.593
 963  1730.3
 964  1749.888
 965  1697.911
 966  1729.985
 967  1739.643
 968  1757.803
 969  1733.451
 970  1720.889
 971  1728.447
 972  1786.411
 973  1809.775
 974  1896.179
 975  1885.023
 976  1904.758
 977  1909.591
 978  2056.257
 979  2178.134
 980  2147.572
 981  2143.53
 982  2026.776
 983  1943.786
 984  1858.258
 985  1897.388
 986  1996.033
 987  1964.526
 988  2117.103
 989  2291.436
 990  2374.957
 991  2300.189
 992  2191.232
 993  2301.481
 994  2316.9
 995  2263.122
 996  2169.641
 997  2074.65
 998  1953.22
 999  2039.035
1000  2096.904
1001  2196.892
1002  2215.669
1003  2208.97
1004  2239.609
1005  2233.675
1006  2357.479
1007  2377.014
1008  2380.208
1009  2266.312
1010  2290.992
1011  2228.822
1012  2260.759
1013  2269.055
1014  2365.198
1015  2399.966
1016  2279.964
1017  2092.313
1018  1981.942
1019  2003.196
1020  2043.821
1021  2173.198
1022  2215.989
1023  2075.517
