# Input file       =  1208857737.106156_cleaned.dat
# Candidate        =  PSR_0332+5434
# Telescope        =  AR
# Epoch_topo       =  58235.409214191619
# Epoch_bary       =  N/A
# T_sample         =  0.002
# Data Folded      =  7340032
# Data Avg         =  0.29912357017955 
# Data StdDev      =  6.2453157175541  
# Profile Bins     =  1024
# Profile Avg      =  2144.12154110597 
# Profile StdDev   =  528.753671927393 
# Reduced chi-sqr  =  0.675
# Prob(Noise)      <  1   (~0.0 sigma)
# P_topo (ms)      =  714.549921335877  +/- 0.000413
# P'_topo (s/s)    =  -0                +/- 2.18e-10
# P''_topo (s/s^2) =  0                 +/- 9.61e-14
# P_bary (ms)      =  N/A
# P'_bary (s/s)    =  N/A
# P''_bary (s/s^2) =  N/A
# P_orb (s)        =  N/A
# asin(i)/c (s)    =  N/A
# eccentricity     =  N/A
# w (rad)          =  N/A
# T_peri           =  N/A
######################################################
   0  2040.137
   1  2021.35
   2  2071.348
   3  2080.243
   4  2081.626
   5  2100.981
   6  2187.306
   7  2323.953
   8  2257.017
   9  2344.459
  10  2386.264
  11  2323.973
  12  2226.079
  13  2144.568
  14  2194.754
  15  2163.034
  16  2166.502
  17  2057.808
  18  2004.615
  19  1918.473
  20  1923.635
  21  1999.466
  22  2070.56
  23  2042.158
  24  2090.191
  25  2207.104
  26  2130.049
  27  2107.924
  28  1881.414
  29  1853.637
  30  1908.378
  31  1977.781
  32  2059.939
  33  1967.229
  34  2046.963
  35  2125.657
  36  2175.221
  37  2218.879
  38  2278.89
  39  2008.776
  40  1970.242
  41  1933.04
  42  2060.468
  43  2108.431
  44  2034.608
  45  2081.44
  46  2119.694
  47  2215.408
  48  2242.271
  49  2055.416
  50  2031.16
  51  2139.892
  52  2191.677
  53  2201.896
  54  2050.584
  55  2108.019
  56  2229.51
  57  2385.634
  58  2497.335
  59  2392.815
  60  2372.368
  61  2432.334
  62  2440.043
  63  2486.42
  64  2367.237
  65  2431.271
  66  2459.023
  67  2454.06
  68  2398.04
  69  2331.165
  70  2417.862
  71  2536.324
  72  2620.056
  73  2674.417
  74  2706.956
  75  2704.128
  76  2683.544
  77  2699.966
  78  2685.744
  79  2659.35
  80  2651.86
  81  2545.271
  82  2525.516
  83  2358.202
  84  2375.764
  85  2271.635
  86  2366.16
  87  2406.734
  88  2347.004
  89  2312.479
  90  2240.442
  91  2253.654
  92  2351.811
  93  2395.975
  94  2403.002
  95  2407.788
  96  2403.44
  97  2516.611
  98  2533.518
  99  2458.782
 100  2300.585
 101  2226.55
 102  2269.742
 103  2242.274
 104  2209.323
 105  2184.797
 106  2156.844
 107  2241.992
 108  2251.431
 109  2309.636
 110  2236.322
 111  2182.205
 112  2251.104
 113  2315.271
 114  2428.71
 115  2435.952
 116  2508.012
 117  2513.397
 118  2384.353
 119  2351.787
 120  2344.765
 121  2364.832
 122  2199.185
 123  2102.3
 124  2176.918
 125  2230.165
 126  2307.031
 127  2276.218
 128  2326.366
 129  2155.562
 130  2189.935
 131  2352.455
 132  2365.896
 133  2311
 134  2219.174
 135  2131.56
 136  2082.876
 137  1964.626
 138  2113.972
 139  2170.055
 140  2263.888
 141  2145.388
 142  2141.542
 143  2089.212
 144  2155.602
 145  2173.503
 146  2286.228
 147  2204.732
 148  2090.177
 149  2005.2
 150  2002.419
 151  2166.728
 152  2312.687
 153  2253.765
 154  2219.492
 155  2212.458
 156  2274.622
 157  2230.979
 158  2294.742
 159  2400.809
 160  2303.536
 161  2164.203
 162  2098.507
 163  2083.346
 164  2105.745
 165  2099.856
 166  2254.813
 167  2279.693
 168  2299.067
 169  2171.411
 170  2036.203
 171  1942.074
 172  1941.554
 173  2058.988
 174  2162.173
 175  1983.356
 176  1997.423
 177  2029.494
 178  2121.252
 179  2023.417
 180  1941.187
 181  2029.141
 182  2079.417
 183  2132.23
 184  2131.206
 185  2037.036
 186  1957.618
 187  1991.705
 188  2099.434
 189  2264.596
 190  2259.93
 191  2217.857
 192  2160.071
 193  2064.359
 194  2165.244
 195  2212.667
 196  2216.425
 197  2112.806
 198  2122.504
 199  2369.537
 200  2409.102
 201  2311.317
 202  2308.062
 203  2368.975
 204  2489.84
 205  2472.774
 206  2529.685
 207  2448.816
 208  2313.77
 209  2263.045
 210  2395.628
 211  2395.365
 212  2427.574
 213  2371.072
 214  2473.951
 215  2544.508
 216  2476.526
 217  2404.93
 218  2380.227
 219  2488.928
 220  2457.991
 221  2451.644
 222  2451.701
 223  2498.196
 224  2478.1
 225  2499.41
 226  2548.369
 227  2592.198
 228  2454.048
 229  2366.446
 230  2357.562
 231  2453.112
 232  2427.854
 233  2283.794
 234  2116.965
 235  2078.816
 236  2121.864
 237  2234.428
 238  2370.805
 239  2411.688
 240  2471.944
 241  2394.92
 242  2434.702
 243  2408.17
 244  2370.274
 245  2414.13
 246  2364.569
 247  2301.949
 248  2255.569
 249  2287.75
 250  2342.614
 251  2325.417
 252  2396.743
 253  2566.321
 254  2543.91
 255  2468.59
 256  2382.057
 257  2380.965
 258  2513.515
 259  2475.048
 260  2324.672
 261  2268.837
 262  2367.669
 263  2571.362
 264  2579.515
 265  2611.797
 266  2736.94
 267  2779.952
 268  2814.307
 269  2618.874
 270  2486.988
 271  2361.326
 272  2362.081
 273  2317.835
 274  2321.241
 275  2313.128
 276  2328.346
 277  2334.307
 278  2296.107
 279  2429.531
 280  2520.06
 281  2676.728
 282  2601.826
 283  2536.368
 284  2457.303
 285  2331.771
 286  2266.264
 287  2191.427
 288  2301.392
 289  2206.362
 290  2271.467
 291  2176.016
 292  2108.626
 293  2006.506
 294  2051.661
 295  1976.119
 296  1950.661
 297  1953.476
 298  1929.267
 299  1786.284
 300  1665.292
 301  1612.751
 302  1652.332
 303  1575.229
 304  1581.66
 305  1508.013
 306  1601.848
 307  1575.121
 308  1547.977
 309  1458.776
 310  1561.938
 311  1810.488
 312  1961.705
 313  1816.505
 314  1713.248
 315  1655.666
 316  1702.48
 317  1777.346
 318  1886.6
 319  1957.39
 320  1918.314
 321  1831.487
 322  1767.997
 323  1670.44
 324  1598.137
 325  1724.467
 326  1850.533
 327  1920.996
 328  1783.621
 329  1748.066
 330  1721.309
 331  1784.698
 332  1802.925
 333  1842.35
 334  1783.342
 335  1851.593
 336  1807.898
 337  1690.969
 338  1706.016
 339  1876.451
 340  2156.473
 341  2109.731
 342  2060.804
 343  1968.19
 344  1935.008
 345  1978.259
 346  1942.201
 347  2097.316
 348  2137.424
 349  2099.864
 350  2187.622
 351  2254.664
 352  2397.987
 353  2336.09
 354  2319.454
 355  2320.979
 356  2244.298
 357  2282.357
 358  2412.834
 359  2410.485
 360  2431.407
 361  2431.616
 362  2356.619
 363  2304.677
 364  2217.079
 365  2134.795
 366  2117.471
 367  1981.2
 368  2068.194
 369  2096.675
 370  2107.881
 371  2195.197
 372  2247.216
 373  2265.957
 374  2072.323
 375  1912.097
 376  1967.843
 377  1929.486
 378  1939.343
 379  1979.094
 380  2029.443
 381  2173.14
 382  2187.113
 383  2158.086
 384  2096.38
 385  2094.057
 386  2111.643
 387  2036.426
 388  2039.393
 389  2086.086
 390  2097.577
 391  2147.485
 392  2087.826
 393  2258.786
 394  2233.276
 395  2242.601
 396  2199.578
 397  2153.337
 398  2071.141
 399  2003.519
 400  2040.631
 401  1950.815
 402  1929.697
 403  1907.643
 404  1977.776
 405  1982.179
 406  2036.362
 407  2077.678
 408  2161.603
 409  2240.685
 410  2325.041
 411  2310.475
 412  2332.313
 413  2302.451
 414  2253.44
 415  2233.359
 416  2254.176
 417  2390.975
 418  2363.948
 419  2492.502
 420  2465.631
 421  2443.56
 422  2389.173
 423  2490.983
 424  2616.114
 425  2625.567
 426  2413.177
 427  2389.419
 428  2241.445
 429  2196.28
 430  2198.321
 431  2204.047
 432  2294.204
 433  2231.904
 434  2266.16
 435  2325.401
 436  2381.383
 437  2350.638
 438  2175.097
 439  2061.959
 440  2108.67
 441  2126.522
 442  2206.91
 443  2225.189
 444  2227.088
 445  2206.696
 446  2070.036
 447  2097.646
 448  1991.586
 449  1933.662
 450  1860.546
 451  1906.376
 452  1934.322
 453  1926.415
 454  1814.943
 455  1925.92
 456  1929.038
 457  2018.381
 458  2034.992
 459  1932.712
 460  1851.805
 461  1944.343
 462  1929.734
 463  1884.869
 464  1814.905
 465  1879.044
 466  2033.161
 467  2100.724
 468  2127.552
 469  1978.581
 470  1891.266
 471  1865.318
 472  1872.365
 473  1928.892
 474  2062.551
 475  2099.735
 476  1926.197
 477  1714.483
 478  1787.8
 479  1911.005
 480  1962.693
 481  2031.807
 482  1963.851
 483  1998.896
 484  1990.47
 485  2077.48
 486  2105.666
 487  2081.457
 488  2068.082
 489  1994.115
 490  2013.079
 491  2219.184
 492  2316.305
 493  2301.919
 494  2212.203
 495  2197.417
 496  2093.466
 497  1882.126
 498  1937.739
 499  2192.097
 500  2368.76
 501  2360.73
 502  2407.417
 503  2338.249
 504  2286.748
 505  2276.288
 506  2457.604
 507  2523.061
 508  2374.556
 509  2369.719
 510  2350.688
 511  2407.464
 512  2363.544
 513  2421.536
 514  2471.143
 515  2325.016
 516  2334.948
 517  2394.389
 518  2497.25
 519  2472.575
 520  2465.441
 521  2469.203
 522  2538.234
 523  2327.573
 524  2211.71
 525  2165.457
 526  2261.079
 527  2247.644
 528  2169.914
 529  2121.013
 530  2103.007
 531  2144.724
 532  2175.415
 533  2135.42
 534  2071.84
 535  2112.639
 536  2142.887
 537  2203.271
 538  2158.367
 539  2099.569
 540  2073.345
 541  1955.235
 542  1915.302
 543  1980.126
 544  2093.977
 545  2116.43
 546  2006.114
 547  1960.601
 548  1852.612
 549  1957.727
 550  2155.572
 551  2255.44
 552  2255.343
 553  2181.471
 554  2113.699
 555  2085.121
 556  2104.67
 557  2253.059
 558  2348.823
 559  2415.822
 560  2343
 561  2239.868
 562  2224.915
 563  2344.597
 564  2381.293
 565  2288.245
 566  2129.115
 567  2042.158
 568  2115.846
 569  2134.574
 570  2186.663
 571  2077.821
 572  2105.076
 573  2127.643
 574  2136.732
 575  2210.047
 576  2133.773
 577  2027.396
 578  2003.47
 579  2051.615
 580  2120.487
 581  2081.518
 582  2111.58
 583  2209.826
 584  2023.199
 585  1970.638
 586  2012.61
 587  2217.715
 588  2366.104
 589  2347.441
 590  2310.264
 591  2238.158
 592  2253.44
 593  2254.19
 594  2370.025
 595  2432.785
 596  2549.96
 597  2695.633
 598  2896.438
 599  3036.154
 600  3010.013
 601  3057.965
 602  3104.868
 603  3113.36
 604  3050.352
 605  2919.013
 606  2860.785
 607  2623.839
 608  2479.906
 609  2258.141
 610  2074.985
 611  1958.023
 612  2033.8
 613  2028.08
 614  1802.158
 615  1618.929
 616  1615.196
 617  1679.888
 618  1660.018
 619  1707.422
 620  1707.92
 621  1870.216
 622  2014.897
 623  2190.668
 624  2228.5
 625  2217.834
 626  2322.635
 627  2239.983
 628  2178.172
 629  2043.093
 630  2091.505
 631  2067.686
 632  2174.405
 633  2177.21
 634  2289.605
 635  2243.47
 636  2271.416
 637  2237.653
 638  2272.343
 639  2297.661
 640  2394.172
 641  2342.316
 642  2293.379
 643  2209.175
 644  2184.846
 645  2177.055
 646  2007.364
 647  2069.364
 648  2089.285
 649  2189.253
 650  2319.481
 651  2447.823
 652  2449.2
 653  2344.771
 654  2221.794
 655  2212.054
 656  2093.715
 657  2041.054
 658  2107.406
 659  2137.865
 660  2221.957
 661  2027.843
 662  2028.096
 663  2013.859
 664  2096.295
 665  2038.412
 666  1998.659
 667  2021.199
 668  2140.358
 669  2139.278
 670  2112.951
 671  2093.496
 672  2108.383
 673  2063.524
 674  2068.872
 675  2238.182
 676  2209.108
 677  2161.756
 678  2002.29
 679  2026.516
 680  2078.75
 681  2039.413
 682  1911.875
 683  1907.759
 684  1934.752
 685  2096.105
 686  2030.088
 687  1908.995
 688  1781.896
 689  1836.495
 690  1784.393
 691  1771.577
 692  1807.673
 693  1872.835
 694  1923.758
 695  1908.261
 696  1990.253
 697  2069.327
 698  2056.753
 699  2007.516
 700  2036.651
 701  2116.067
 702  2064.874
 703  1902.689
 704  1838.09
 705  1845.927
 706  1861.111
 707  1827.59
 708  1742.842
 709  1789.246
 710  1868.151
 711  2068.394
 712  2049.033
 713  2065.653
 714  1974.784
 715  1902.866
 716  1925.805
 717  1798.975
 718  1841.239
 719  1826.839
 720  1777.432
 721  1649.7
 722  1644.742
 723  1678.961
 724  1765.682
 725  1769.143
 726  1732.521
 727  1829.953
 728  1814.78
 729  1863.087
 730  1894.689
 731  2043.183
 732  2091.214
 733  1906.919
 734  1853.438
 735  1721.657
 736  1679.472
 737  1634.961
 738  1661.284
 739  1723.521
 740  1750.495
 741  1760.721
 742  1815.919
 743  1761.326
 744  1905.621
 745  2015.856
 746  1925.649
 747  1810.831
 748  1645.058
 749  1660.116
 750  1648.446
 751  1605.48
 752  1729.249
 753  1812.531
 754  1828.806
 755  1837.188
 756  1945.552
 757  2066.7
 758  2051.631
 759  2026.631
 760  2129.359
 761  2002.308
 762  1954.37
 763  1891.111
 764  1844.91
 765  1864.846
 766  1905.194
 767  2034.927
 768  2089.42
 769  2052.724
 770  2186.454
 771  2230.712
 772  2224.155
 773  2145.928
 774  2176.299
 775  2276.509
 776  2305.214
 777  2253.859
 778  2265.436
 779  2190.006
 780  2221.838
 781  2229.676
 782  2194.656
 783  2186.621
 784  2007.871
 785  2155.707
 786  2213.068
 787  2248.109
 788  2237.26
 789  2284.514
 790  2351.19
 791  2188.129
 792  2012.17
 793  2077.465
 794  2141.625
 795  2156.02
 796  2189.357
 797  2264.541
 798  2350.321
 799  2372.745
 800  2465.18
 801  2526.777
 802  2430.978
 803  2352.389
 804  2289.217
 805  2254.466
 806  2237.436
 807  2179.502
 808  2246.11
 809  2209.388
 810  2164.839
 811  2178.349
 812  2231.273
 813  2307.448
 814  2360.226
 815  2273.784
 816  2254.551
 817  2215.675
 818  2284.75
 819  2273.921
 820  2059.667
 821  1971.198
 822  1909.698
 823  2007.75
 824  2150.339
 825  2232.354
 826  2168.64
 827  2021.405
 828  1945.479
 829  1986.32
 830  2047.777
 831  2065.945
 832  2053.699
 833  1977.356
 834  2005.742
 835  1951.793
 836  1838.335
 837  1677.084
 838  1743.325
 839  1968.638
 840  1955.586
 841  1929.872
 842  1969.243
 843  2035.927
 844  2279.546
 845  2316.343
 846  2335.807
 847  2277.119
 848  2170.074
 849  2180.657
 850  2194.946
 851  2222.341
 852  2226.923
 853  2143.896
 854  2153.458
 855  2157.93
 856  2254.068
 857  2374.037
 858  2355.709
 859  2225.123
 860  2210.591
 861  2353.65
 862  2351.563
 863  2360.737
 864  2422.008
 865  2365.685
 866  2209.501
 867  2063.175
 868  2078.18
 869  2048.957
 870  2031.606
 871  2054.529
 872  1986.306
 873  1848.552
 874  1688.739
 875  1764.535
 876  1741.229
 877  1716.896
 878  1640.773
 879  1572.595
 880  1790.03
 881  1991.277
 882  2093.32
 883  2118.954
 884  2119.473
 885  2228.016
 886  2191.602
 887  2132.439
 888  1996.837
 889  1856.551
 890  1782.598
 891  1759.713
 892  1789.18
 893  1882.021
 894  1921.11
 895  1913.611
 896  1970.064
 897  1867.467
 898  1951.502
 899  1995.275
 900  2062.996
 901  2066.376
 902  1954.72
 903  1879.459
 904  1866.204
 905  1818.337
 906  1812.916
 907  1730.747
 908  1771.911
 909  1866.677
 910  1889.521
 911  2066.578
 912  2147.806
 913  2296.867
 914  2154.737
 915  2081.394
 916  2119.284
 917  2205.946
 918  2189.057
 919  2056.349
 920  2065.112
 921  2171.405
 922  2202.42
 923  2251.467
 924  2196
 925  2251.472
 926  2382.406
 927  2402.281
 928  2444.51
 929  2441.924
 930  2445.59
 931  2435.437
 932  2404.634
 933  2345.793
 934  2449.981
 935  2470.473
 936  2500.511
 937  2560.823
 938  2545.444
 939  2638.776
 940  2379.551
 941  2318.349
 942  2347.502
 943  2323.67
 944  2331.734
 945  2331.949
 946  2317.543
 947  2296.798
 948  2257.619
 949  2281.498
 950  2135.494
 951  2109.758
 952  2062.407
 953  2130.538
 954  2156.379
 955  2240.775
 956  2137.142
 957  2020.646
 958  1944.592
 959  2027.513
 960  2039.491
 961  1880.703
 962  1941.43
 963  1985.944
 964  1970.776
 965  1871.551
 966  1927.051
 967  2002.557
 968  1963.909
 969  1803.657
 970  1715.518
 971  1724.719
 972  1855.629
 973  1846.874
 974  1931.367
 975  1969.339
 976  1950.093
 977  1891.133
 978  1852.467
 979  1755.714
 980  1833.613
 981  1859.768
 982  1938.572
 983  1929.022
 984  1952.134
 985  1954.688
 986  2010.591
 987  2103.849
 988  2119.101
 989  2099.762
 990  2013.276
 991  1846.027
 992  1759.073
 993  1661.409
 994  1735.53
 995  1821.403
 996  1941.642
 997  1971.256
 998  2042.361
 999  2025.756
1000  2020.807
1001  1983.934
1002  1932.74
1003  2031.089
1004  2111.523
1005  2142.687
1006  2105.316
1007  2098.184
1008  2169.459
1009  2071.404
1010  2090.007
1011  2176.347
1012  2241.231
1013  2326.571
1014  2182.615
1015  2072.66
1016  2118.04
1017  2206.048
1018  2189.772
1019  2136.597
1020  2091.423
1021  2210.37
1022  2147.388
1023  2082.505
