# Input file       =  1208872645.123394_cleaned.dat
# Candidate        =  PSR_0332+5434
# Telescope        =  AR
# Epoch_topo       =  58235.581760687433
# Epoch_bary       =  N/A
# T_sample         =  0.002
# Data Folded      =  7340032
# Data Avg         =  0.225557327977315
# Data StdDev      =  5.6674318297619  
# Profile Bins     =  1024
# Profile Avg      =  1616.83138910871 
# Profile StdDev   =  479.827686206775 
# Reduced chi-sqr  =  1.231
# Prob(Noise)      <  5.48e-07   (~4.9 sigma)
# P_topo (ms)      =  714.550111070386  +/- 0.000244
# P'_topo (s/s)    =  -0                +/- 1.29e-10
# P''_topo (s/s^2) =  0                 +/- 5.68e-14
# P_bary (ms)      =  N/A
# P'_bary (s/s)    =  N/A
# P''_bary (s/s^2) =  N/A
# P_orb (s)        =  N/A
# asin(i)/c (s)    =  N/A
# eccentricity     =  N/A
# w (rad)          =  N/A
# T_peri           =  N/A
######################################################
   0  1424.385
   1  1519.025
   2  1505.48
   3  1421.883
   4  1421.642
   5  1433.258
   6  1442.604
   7  1444.973
   8  1376.612
   9  1314.6
  10  1263.56
  11  1269.421
  12  1362.245
  13  1431.406
  14  1450.53
  15  1469.634
  16  1472.448
  17  1608.001
  18  1611.133
  19  1630.447
  20  1483.08
  21  1444.225
  22  1445.153
  23  1477.622
  24  1500.825
  25  1553.478
  26  1511.552
  27  1519.782
  28  1443.843
  29  1418.249
  30  1429.499
  31  1438.934
  32  1522.353
  33  1613.895
  34  1784.6
  35  1845.774
  36  1675.457
  37  1660.309
  38  1665.626
  39  1671.577
  40  1677.125
  41  1691.237
  42  1774.669
  43  1809.27
  44  1711.793
  45  1652.957
  46  1557.645
  47  1582.515
  48  1670.252
  49  1618.201
  50  1526.842
  51  1482.282
  52  1608.267
  53  1626.043
  54  1564.144
  55  1500.062
  56  1530.727
  57  1461.993
  58  1383.572
  59  1291.726
  60  1350.868
  61  1520.718
  62  1502.308
  63  1421.699
  64  1355.57
  65  1509.41
  66  1557.505
  67  1542.384
  68  1567.674
  69  1691.551
  70  1672.49
  71  1505.844
  72  1402.356
  73  1373.465
  74  1399.059
  75  1222.083
  76  1247.822
  77  1180.332
  78  1222.207
  79  1135.85
  80  1176.573
  81  1184.742
  82  1221.152
  83  1297
  84  1192.947
  85  1196.146
  86  1248.711
  87  1319.54
  88  1330.321
  89  1196.677
  90  1221.716
  91  1207.762
  92  1197.642
  93  1128.497
  94  1162.545
  95  1246.463
  96  1228.798
  97  1179.66
  98  1144.914
  99  1177.916
 100  1230.873
 101  1373.974
 102  1443.81
 103  1508.393
 104  1431.671
 105  1454.309
 106  1454.362
 107  1574.138
 108  1590.747
 109  1568.74
 110  1519.51
 111  1529.478
 112  1439.525
 113  1417.859
 114  1438.121
 115  1562.518
 116  1605.493
 117  1589.937
 118  1514.719
 119  1358.159
 120  1331.194
 121  1410.258
 122  1537.418
 123  1643.606
 124  1636.413
 125  1550.111
 126  1392.094
 127  1449.572
 128  1586.209
 129  1604.043
 130  1665.847
 131  1532.411
 132  1517.097
 133  1549.945
 134  1626.216
 135  1596.297
 136  1581.901
 137  1625.266
 138  1671.396
 139  1719.27
 140  1811.289
 141  1779.833
 142  1715.623
 143  1668.645
 144  1724.519
 145  1747.928
 146  1716.024
 147  1675.948
 148  1829.795
 149  1806.228
 150  1830.004
 151  1794.526
 152  1935.452
 153  1952.106
 154  1905.469
 155  1980.536
 156  1895.932
 157  1973.669
 158  2067.115
 159  2071.314
 160  2040.594
 161  1923.467
 162  1931.011
 163  1963.977
 164  1968.201
 165  2063.545
 166  2082.857
 167  2034.445
 168  1916.658
 169  1875.649
 170  1896.069
 171  1903.739
 172  1863.055
 173  1971.032
 174  1882.802
 175  1847.622
 176  1843.62
 177  1854.466
 178  1779.573
 179  1635.774
 180  1573.546
 181  1633.398
 182  1738.803
 183  1887.742
 184  1851.49
 185  1762.059
 186  1681.294
 187  1655.748
 188  1593.768
 189  1497.502
 190  1487.909
 191  1708.429
 192  1708.608
 193  1722.724
 194  1625.39
 195  1651.151
 196  1612.272
 197  1509.399
 198  1501.796
 199  1461.205
 200  1498.406
 201  1403.94
 202  1333.147
 203  1335.354
 204  1355.757
 205  1445.349
 206  1453.297
 207  1334.692
 208  1345.636
 209  1385.741
 210  1404.614
 211  1363.699
 212  1278.121
 213  1282.407
 214  1175.793
 215  1096.242
 216  1122.897
 217  1282.011
 218  1372.819
 219  1338.873
 220  1291.487
 221  1380.847
 222  1258.093
 223  1130.839
 224  1081.909
 225  1185.632
 226  1184.198
 227  1174.206
 228  1225.508
 229  1251.845
 230  1329.431
 231  1406.65
 232  1558.932
 233  1571.732
 234  1610.436
 235  1526.638
 236  1539.211
 237  1469.774
 238  1420.729
 239  1390.665
 240  1298.705
 241  1402.753
 242  1435.38
 243  1454.729
 244  1510.183
 245  1584.593
 246  1689.246
 247  1529.886
 248  1455.725
 249  1559.453
 250  1745.838
 251  1800.519
 252  1640.797
 253  1594.569
 254  1678.328
 255  1660.974
 256  1651.749
 257  1486.728
 258  1411.746
 259  1360.302
 260  1459.765
 261  1521.726
 262  1493.627
 263  1562.622
 264  1578.459
 265  1647.943
 266  1724.85
 267  1819.214
 268  1837.903
 269  1751.875
 270  1711.649
 271  1655.15
 272  1652.507
 273  1618.083
 274  1722.712
 275  1857.061
 276  1947.364
 277  1809.602
 278  1678.863
 279  1772.985
 280  1758.236
 281  1760.309
 282  1781.505
 283  1923.361
 284  1938.94
 285  1945.092
 286  1838.885
 287  1784.37
 288  1658.99
 289  1732.473
 290  1899.876
 291  1898.667
 292  1813.27
 293  1820.843
 294  1899.642
 295  1882.868
 296  1907.854
 297  2017.426
 298  1992.406
 299  2102.525
 300  2032.17
 301  2046.016
 302  1888.263
 303  1805.808
 304  1799.378
 305  1771.951
 306  1748.037
 307  1624.257
 308  1551.389
 309  1625.28
 310  1569.214
 311  1738.116
 312  1738.531
 313  1939.365
 314  2021.67
 315  2105.677
 316  2040.06
 317  1996.17
 318  1870.997
 319  1797.138
 320  1618.316
 321  1630.656
 322  1778.146
 323  1912.61
 324  1961.772
 325  1928.415
 326  1900.273
 327  1917.271
 328  1897.027
 329  1942.751
 330  1767.845
 331  1893.728
 332  1954.721
 333  1922.006
 334  1775.744
 335  1778.025
 336  1776
 337  1719.996
 338  1811.528
 339  1828.639
 340  1866.723
 341  1848.951
 342  1766.725
 343  1544.744
 344  1486.724
 345  1499.763
 346  1551.003
 347  1470.346
 348  1441.379
 349  1490.033
 350  1591.729
 351  1596.972
 352  1548.932
 353  1612.569
 354  1612.082
 355  1605.867
 356  1411.56
 357  1245.85
 358  1168.355
 359  1192.23
 360  1278.647
 361  1308.981
 362  1325.375
 363  1280.71
 364  1269.254
 365  1254.342
 366  1221.827
 367  1337.741
 368  1403.34
 369  1478.201
 370  1334.571
 371  1258.446
 372  1283.723
 373  1381.709
 374  1481.19
 375  1453.295
 376  1268.6
 377  1081.087
 378  1122.183
 379  1154.386
 380  1291.821
 381  1281.474
 382  1264.391
 383  1274.121
 384  1213.186
 385  1143.235
 386  1103.687
 387  1237.598
 388  1309.264
 389  1236.011
 390  1179.216
 391  1256.402
 392  1345.536
 393  1450.566
 394  1479.563
 395  1438.071
 396  1391.199
 397  1429.604
 398  1549.886
 399  1528.351
 400  1445.521
 401  1434.26
 402  1433.037
 403  1521.467
 404  1460.453
 405  1394.628
 406  1298.929
 407  1275.168
 408  1361.853
 409  1308.375
 410  1368.988
 411  1379.944
 412  1447.546
 413  1529.546
 414  1550.739
 415  1440.539
 416  1368.372
 417  1387.505
 418  1481.823
 419  1477.925
 420  1499.864
 421  1345.893
 422  1271.023
 423  1362.888
 424  1513.111
 425  1552.94
 426  1538.49
 427  1609.041
 428  1671.963
 429  1579.779
 430  1519.113
 431  1431.756
 432  1527.72
 433  1445.763
 434  1540.992
 435  1682.495
 436  1702.24
 437  1699.167
 438  1601.108
 439  1787.052
 440  1854.667
 441  1711.017
 442  1510.743
 443  1402.133
 444  1541.749
 445  1493.812
 446  1467.149
 447  1536.89
 448  1611.372
 449  1748.698
 450  1731.726
 451  1832.844
 452  1747.393
 453  1846.565
 454  1823.335
 455  1834.461
 456  1898.776
 457  1963.611
 458  1955.693
 459  1760.161
 460  1794.428
 461  1777.12
 462  1741.364
 463  1707.115
 464  1745.639
 465  1795.056
 466  1736.151
 467  1851.903
 468  1899.877
 469  1859.959
 470  1695.183
 471  1737.329
 472  1794.81
 473  1662.671
 474  1679.132
 475  1711.661
 476  1939.212
 477  1836.391
 478  1719.406
 479  1600.865
 480  1702.679
 481  1793.666
 482  1838.486
 483  1869.896
 484  1855.236
 485  1791.094
 486  1841.846
 487  1933.064
 488  1896.199
 489  1689.528
 490  1740.118
 491  1741.959
 492  1753.656
 493  1666.441
 494  1547.255
 495  1525.444
 496  1428.174
 497  1516.94
 498  1619.665
 499  1674.646
 500  1675.825
 501  1741.145
 502  1685.289
 503  1632.193
 504  1561.913
 505  1603.288
 506  1525.711
 507  1599.785
 508  1559.83
 509  1343.022
 510  1211.483
 511  1291.329
 512  1493.396
 513  1512.441
 514  1407.523
 515  1345.318
 516  1320.911
 517  1426.556
 518  1401.003
 519  1324.134
 520  1255.942
 521  1267.262
 522  1247.137
 523  1177.511
 524  1095.405
 525  1163.255
 526  1246.983
 527  1379.525
 528  1390.016
 529  1298.604
 530  1232.149
 531  1291.618
 532  1267.928
 533  1337.089
 534  1384.372
 535  1446.696
 536  1572.075
 537  1560.642
 538  1595.761
 539  1513.13
 540  1483.834
 541  1509.686
 542  1415.974
 543  1296.087
 544  1193.09
 545  1150.228
 546  1309.123
 547  1385.219
 548  1438.85
 549  1481.511
 550  1547.375
 551  1482.182
 552  1515.697
 553  1506.938
 554  1658.427
 555  1650.707
 556  1616.824
 557  1732.118
 558  1789.415
 559  1688.939
 560  1605.386
 561  1477.699
 562  1516.819
 563  1575.96
 564  1657.307
 565  1568.007
 566  1471.707
 567  1563.27
 568  1634.453
 569  1665.253
 570  1605.025
 571  1468.846
 572  1385.922
 573  1398.191
 574  1412.924
 575  1471.002
 576  1421.093
 577  1587.547
 578  1631.721
 579  1774.868
 580  1620.273
 581  1572.425
 582  1554.287
 583  1514.515
 584  1659.97
 585  1846.832
 586  1990.687
 587  1984.186
 588  1920.563
 589  1948.05
 590  1969.748
 591  2017.016
 592  2024.643
 593  2166.706
 594  2327.905
 595  2436.857
 596  2474.111
 597  2554.439
 598  2650.931
 599  2910.566
 600  2954.75
 601  3069.346
 602  3186.887
 603  3181.554
 604  3133.101
 605  2876.788
 606  2616.596
 607  2333.072
 608  2192.483
 609  2149.105
 610  2050.434
 611  2081.103
 612  2113.24
 613  2155.889
 614  2130.045
 615  2202.946
 616  2219.93
 617  2148.112
 618  2102.313
 619  2162.447
 620  2186.057
 621  2031.71
 622  1927.651
 623  1857.288
 624  1852.78
 625  1898.783
 626  2036.878
 627  2110.309
 628  2076.384
 629  1947.251
 630  1879.711
 631  1830.469
 632  1814.886
 633  1891.392
 634  1970.643
 635  1988.611
 636  1968.728
 637  1847.074
 638  1821.923
 639  1849.798
 640  1909.393
 641  1949.534
 642  1811.246
 643  1731.676
 644  1766.537
 645  1873.187
 646  1836.833
 647  1669.539
 648  1567.968
 649  1609.193
 650  1761.191
 651  1738.258
 652  1704.663
 653  1617.692
 654  1724.587
 655  1626.231
 656  1658.427
 657  1693.291
 658  1806.562
 659  1797.553
 660  1720.908
 661  1730.34
 662  1895.492
 663  1822.503
 664  1768.668
 665  1638.303
 666  1628.295
 667  1622.868
 668  1670.445
 669  1688.76
 670  1694.515
 671  1667.06
 672  1671.007
 673  1734.697
 674  1702.627
 675  1700.78
 676  1666.367
 677  1782.361
 678  1674.65
 679  1565.418
 680  1498.565
 681  1562.618
 682  1495.59
 683  1515.935
 684  1500.812
 685  1562.573
 686  1599.44
 687  1685.875
 688  1663.489
 689  1649.886
 690  1731.218
 691  1682.95
 692  1628.428
 693  1602.257
 694  1709
 695  1683.416
 696  1528.018
 697  1561.513
 698  1660.864
 699  1698.711
 700  1626.868
 701  1494.973
 702  1636.943
 703  1744.842
 704  1672.452
 705  1581.587
 706  1619.64
 707  1766.552
 708  1685.056
 709  1693.21
 710  1729.56
 711  1835.834
 712  1931.702
 713  1929.362
 714  1965.154
 715  1966.385
 716  1916.695
 717  1776.277
 718  1706.707
 719  1683.698
 720  1693.759
 721  1560.61
 722  1346.541
 723  1330.84
 724  1503.936
 725  1680.203
 726  1677.464
 727  1547.388
 728  1480.183
 729  1599.056
 730  1681.566
 731  1651.26
 732  1605.037
 733  1586.206
 734  1664.641
 735  1619.251
 736  1553.824
 737  1546.673
 738  1771.978
 739  1937.81
 740  2004.062
 741  2009.542
 742  2015.214
 743  2040.545
 744  1873.014
 745  1780.007
 746  1722.508
 747  1771.894
 748  1833.142
 749  1758.358
 750  1816.92
 751  1874.124
 752  2005.516
 753  1900.894
 754  1895.752
 755  1885.701
 756  1908.151
 757  1914.75
 758  1923.318
 759  1995.334
 760  1903.045
 761  1866.76
 762  1861.473
 763  2087.153
 764  2265.147
 765  2214.441
 766  2156.981
 767  2150.16
 768  2163.936
 769  2183.776
 770  2249.333
 771  2293.742
 772  2388.229
 773  2327.175
 774  2256.044
 775  2212.217
 776  2137.792
 777  2131.954
 778  2058.816
 779  2089.956
 780  1995.851
 781  1997.653
 782  2047.37
 783  1965.315
 784  1878.172
 785  1925.976
 786  1975.184
 787  2026.038
 788  1836.489
 789  1770.325
 790  1720.145
 791  1735.951
 792  1766.235
 793  1806.528
 794  1930.612
 795  1954.317
 796  1904.153
 797  1914.605
 798  1940.041
 799  1868.44
 800  1868.879
 801  1692.816
 802  1662.267
 803  1502.124
 804  1449.537
 805  1577.215
 806  1468.398
 807  1537.844
 808  1507.774
 809  1380.049
 810  1371.97
 811  1339.123
 812  1453.015
 813  1345.791
 814  1211.804
 815  1283.437
 816  1427.033
 817  1623.924
 818  1632.167
 819  1427.729
 820  1324.703
 821  1327.569
 822  1452.557
 823  1485.168
 824  1448.072
 825  1538.291
 826  1618.988
 827  1486.693
 828  1392.026
 829  1215.059
 830  1165.136
 831  1196.444
 832  1276.95
 833  1387.327
 834  1294.046
 835  1254.228
 836  1313.381
 837  1372.584
 838  1381.554
 839  1307.457
 840  1434.684
 841  1368.689
 842  1316.724
 843  1152.454
 844  1167.111
 845  1170.656
 846  1244.621
 847  1256.115
 848  1238.96
 849  1255.867
 850  1165.435
 851  1254.428
 852  1356.213
 853  1517.203
 854  1409.839
 855  1301.157
 856  1362.874
 857  1519.027
 858  1514.281
 859  1484.926
 860  1538.998
 861  1580.477
 862  1502.06
 863  1332.313
 864  1319.559
 865  1335.775
 866  1352.169
 867  1342.767
 868  1274.76
 869  1234.99
 870  1233.203
 871  1367.601
 872  1551.391
 873  1630.471
 874  1589.729
 875  1582.168
 876  1576.671
 877  1570.527
 878  1471.404
 879  1325.315
 880  1328.151
 881  1320.944
 882  1493.953
 883  1626.366
 884  1722.28
 885  1711.681
 886  1622.542
 887  1714.153
 888  1699.459
 889  1747.8
 890  1756.871
 891  1790.341
 892  1705.316
 893  1704.727
 894  1636.637
 895  1694.209
 896  1710.928
 897  1683.252
 898  1831.259
 899  1849.067
 900  1915.771
 901  1841.982
 902  1772.021
 903  1872.957
 904  1920.244
 905  2105.287
 906  1997.547
 907  1949.087
 908  1948.444
 909  1934.099
 910  1971.511
 911  1951.182
 912  1984.506
 913  1934.553
 914  1899.764
 915  2011.312
 916  2040.216
 917  1975.211
 918  1960.84
 919  2110.594
 920  2174.706
 921  2030.28
 922  1915.65
 923  1729.593
 924  1644.422
 925  1678.394
 926  1807.77
 927  1905.714
 928  2048.415
 929  1994.62
 930  2054.837
 931  1961.505
 932  1951.155
 933  1823.47
 934  1766.535
 935  1768.985
 936  1772.167
 937  1707.804
 938  1679.476
 939  1736.27
 940  1895.211
 941  1834.982
 942  1705.082
 943  1805.526
 944  1892.896
 945  1928.311
 946  1796.655
 947  1659.182
 948  1474.992
 949  1389.584
 950  1341.534
 951  1396.45
 952  1375.143
 953  1469.658
 954  1559.529
 955  1656.375
 956  1616.973
 957  1511.213
 958  1459.871
 959  1430.968
 960  1396.231
 961  1398.345
 962  1316.635
 963  1406.835
 964  1505.383
 965  1539.736
 966  1459.763
 967  1307.053
 968  1232.879
 969  1343.852
 970  1355.961
 971  1263.52
 972  1066.41
 973  1025
 974  1103.445
 975  1136.755
 976  1192.107
 977  1217.57
 978  1183.023
 979  1165.524
 980  1218.687
 981  1283.692
 982  1308.459
 983  1214.164
 984  1254.553
 985  1132.142
 986  1057.18
 987  981.968
 988  1140.903
 989  1216.981
 990  1112.27
 991  1081.907
 992  1064.863
 993  1136.09
 994  1126.12
 995  1257.371
 996  1205.617
 997  1158.454
 998  1118.93
 999  1210.626
1000  1319.977
1001  1272.174
1002  1261.166
1003  1247.876
1004  1193.034
1005  1146.213
1006  1182.172
1007  1263.748
1008  1349.003
1009  1361.933
1010  1369.877
1011  1296.892
1012  1285.239
1013  1417.489
1014  1524.89
1015  1535.952
1016  1355.827
1017  1209.392
1018  1172.392
1019  1133.469
1020  1144.442
1021  1284.339
1022  1352.968
1023  1400.57
