# Input file       =  1208843057.118752_cleaned.dat
# Candidate        =  PSR_0332+5434
# Telescope        =  AR
# Epoch_topo       =  58235.239306930001
# Epoch_bary       =  N/A
# T_sample         =  0.002
# Data Folded      =  7208960
# Data Avg         =  0.461353068869689
# Data StdDev      =  9.27217880424567 
# Profile Bins     =  512
# Profile Avg      =  6495.84827161078 
# Profile StdDev   =  1100.22909472204 
# Reduced chi-sqr  =  0.806
# Prob(Noise)      <  1   (~0.0 sigma)
# P_topo (ms)      =  714.550043883914  +/- 6.39e-05
# P'_topo (s/s)    =  -0                +/- 3.43e-11
# P''_topo (s/s^2) =  0                 +/- 1.54e-14
# P_bary (ms)      =  N/A
# P'_bary (s/s)    =  N/A
# P''_bary (s/s^2) =  N/A
# P_orb (s)        =  N/A
# asin(i)/c (s)    =  N/A
# eccentricity     =  N/A
# w (rad)          =  N/A
# T_peri           =  N/A
######################################################
   0  6806.097
   1  6716.254
   2  6711.8
   3  5260.837
   4  6303.452
   5  6335.363
   6  7022.28
   7  6493.257
   8  5170.582
   9  5365.73
  10  5950.458
  11  6977.523
  12  7292.992
  13  6658.363
  14  5821.956
  15  5420.678
  16  5750.229
  17  7681.561
  18  7793.223
  19  7871.163
  20  7577.391
  21  7217.482
  22  5862.432
  23  7231.313
  24  7213.549
  25  7174.885
  26  6917.315
  27  5988.989
  28  6570.704
  29  6447.852
  30  7567.762
  31  7175.77
  32  7001.295
  33  6684.132
  34  6572.016
  35  7793.596
  36  8218.97
  37  7592.999
  38  6167.451
  39  6150.388
  40  5534.409
  41  5733.742
  42  6485.937
  43  6913.947
  44  7618.878
  45  8173.039
  46  7397.09
  47  7031.548
  48  6894.636
  49  5779.095
  50  6557.475
  51  7587.223
  52  7155.896
  53  7387.252
  54  7749.19
  55  7810.438
  56  7824.229
  57  7001.073
  58  6281.028
  59  6236.042
  60  6801.733
  61  6748.221
  62  6882.296
  63  7380.915
  64  7381.536
  65  7104.749
  66  6596.613
  67  7513.468
  68  7165.6
  69  7535.4
  70  6324.13
  71  5840.561
  72  5685.36
  73  6273.816
  74  6639.742
  75  6005.501
  76  5644.331
  77  5561.57
  78  6257.074
  79  6708.576
  80  6410.725
  81  6598.211
  82  6072.901
  83  5646.472
  84  6358.061
  85  7563.493
  86  7335.594
  87  5934.772
  88  6643.054
  89  5995.857
  90  6411.735
  91  6433.219
  92  6136.886
  93  6528.906
  94  5414.171
  95  6127.787
  96  6338.097
  97  6617.775
  98  6507.979
  99  6919.417
 100  6819.217
 101  7571.4
 102  7165.444
 103  6647.198
 104  6673.813
 105  6041.715
 106  6566.589
 107  5676.798
 108  6787.006
 109  7642.807
 110  6940.82
 111  6275.575
 112  5846.76
 113  6396.907
 114  6984.887
 115  6538.587
 116  5989.861
 117  6831.847
 118  6764.857
 119  6490.459
 120  6731.577
 121  5708.601
 122  6119.907
 123  6181.615
 124  5505.77
 125  6336.146
 126  6017.899
 127  5960.362
 128  5787.361
 129  6296.611
 130  6834.562
 131  5472.456
 132  5716.631
 133  6226.369
 134  6025.239
 135  6633.677
 136  6998.986
 137  6047.59
 138  7021.708
 139  7332.512
 140  7009.626
 141  7444.672
 142  7445.62
 143  7299.567
 144  6344.202
 145  7362.277
 146  7030.127
 147  6047.174
 148  6830.786
 149  7064.688
 150  6574.473
 151  6772.046
 152  7220.478
 153  6716.997
 154  7619.607
 155  7081.323
 156  6446.979
 157  6893.557
 158  7239.472
 159  7255.835
 160  6861.731
 161  6533.891
 162  6496.962
 163  6514.688
 164  7357.28
 165  7114.838
 166  6554.763
 167  6760.51
 168  6956.26
 169  7688.455
 170  8101.602
 171  7953.832
 172  7175.381
 173  6665.777
 174  6197.36
 175  7041.028
 176  7190.512
 177  6889.143
 178  6978.619
 179  5734
 180  7100.229
 181  6548.548
 182  7394.179
 183  7121.987
 184  7169.834
 185  7480.149
 186  6276.17
 187  6434.117
 188  5915.852
 189  6815.039
 190  7200.402
 191  7056.888
 192  6390.82
 193  6173.399
 194  5800.266
 195  5913.495
 196  6657.804
 197  6329.832
 198  5949.843
 199  7240.21
 200  6807.609
 201  6911.411
 202  6814.435
 203  7385.577
 204  7032.87
 205  7045.194
 206  6470.868
 207  6246.755
 208  7472.717
 209  7936.862
 210  6972.477
 211  5780.13
 212  6501.872
 213  6959.997
 214  7080.481
 215  6704.229
 216  6614.314
 217  6987.254
 218  6055.595
 219  6399.05
 220  6498.813
 221  6738.961
 222  6232.674
 223  6793.568
 224  6165.057
 225  6209.629
 226  6449.675
 227  5950.742
 228  6169.501
 229  5509.531
 230  5781.234
 231  5386.076
 232  6508.094
 233  8333.778
 234  7988.917
 235  7686.434
 236  6947.538
 237  5789.894
 238  5983.34
 239  5163.28
 240  5321.902
 241  6076.034
 242  6615.758
 243  6387.246
 244  5464.781
 245  5907.277
 246  5850.288
 247  6792.597
 248  6015.843
 249  6411.303
 250  5729.042
 251  6724.411
 252  7132.802
 253  7374.583
 254  6172.569
 255  5306.905
 256  5881.42
 257  5997.97
 258  6918.906
 259  6400.826
 260  6076.792
 261  5772.736
 262  5550.703
 263  5281.357
 264  4799.485
 265  5761.145
 266  6702.499
 267  7235.39
 268  6854.257
 269  6161.758
 270  6305.048
 271  6440.539
 272  7047.849
 273  5996.797
 274  5918.308
 275  6783.34
 276  5873.56
 277  6387.01
 278  6009.979
 279  7113.442
 280  6479.125
 281  6745.75
 282  6662.165
 283  6383.266
 284  6460.721
 285  5770.794
 286  6224.057
 287  6239.88
 288  5545.327
 289  5496.913
 290  5732.785
 291  6084.729
 292  6614.976
 293  7084.625
 294  6424.513
 295  6187.91
 296  6461.2
 297  6299.093
 298  6355.661
 299  7435.313
 300  8799.877
 301  8586.681
 302  7962.604
 303  7909.095
 304  6831.1
 305  6111.896
 306  5983.655
 307  6714.352
 308  7021.149
 309  6851.955
 310  5963.197
 311  6893.956
 312  6551.196
 313  5566.927
 314  6407.336
 315  6136.413
 316  7057.463
 317  6838.552
 318  6248.555
 319  6825.224
 320  5733.325
 321  6587.901
 322  6095.839
 323  6416.136
 324  6881.805
 325  6993.729
 326  6310.589
 327  7024.577
 328  6334.946
 329  6013.777
 330  6313.163
 331  6770.721
 332  7763.862
 333  7381.837
 334  6992.322
 335  7101.066
 336  6654.258
 337  7310.953
 338  7718.037
 339  7417.822
 340  7520.816
 341  7208.063
 342  6792.691
 343  6568.481
 344  7746.312
 345  7442.411
 346  7410.57
 347  6943.124
 348  7098.48
 349  7272.737
 350  6944.482
 351  7191.877
 352  6026.511
 353  7206.492
 354  6595.551
 355  6894.956
 356  7237.186
 357  7261.233
 358  6765.534
 359  6687.072
 360  7152.931
 361  6223.838
 362  6643.891
 363  6354.052
 364  6442.74
 365  6229.514
 366  7092.406
 367  7039.253
 368  6228.765
 369  5965.045
 370  5486.175
 371  5668.713
 372  5673.719
 373  5885.445
 374  6459.554
 375  6778.454
 376  6704.62
 377  5703.109
 378  5396.616
 379  5341.56
 380  6186.032
 381  6802.52
 382  5910.657
 383  5805.705
 384  5576.074
 385  6624.225
 386  6198.768
 387  5961.295
 388  5683.608
 389  5173.135
 390  5465.354
 391  4708.603
 392  5379.438
 393  6250.178
 394  7067.026
 395  6038.998
 396  5023.741
 397  5064.826
 398  5241.337
 399  6875.293
 400  7458.259
 401  7384.201
 402  5884.3
 403  5190.813
 404  4853.131
 405  5320.67
 406  6540.535
 407  5772.144
 408  5638.739
 409  5837.921
 410  6253.109
 411  6338.26
 412  7002.874
 413  7678.611
 414  7267.854
 415  6550.151
 416  6494.595
 417  5874.726
 418  6559.489
 419  6782.192
 420  6269.686
 421  5247.93
 422  5618.68
 423  6303.634
 424  7337.955
 425  7084.843
 426  5995.538
 427  5640.656
 428  5083.586
 429  5493.306
 430  5774.947
 431  7079.684
 432  6804.685
 433  6166.833
 434  5108.292
 435  5151.576
 436  6345.5
 437  6101.886
 438  6231.645
 439  5301.144
 440  5041.796
 441  4940.106
 442  5974.619
 443  6821.34
 444  6438.446
 445  5684.331
 446  5228.739
 447  4791.935
 448  5379.271
 449  6712.417
 450  7066.549
 451  5971.778
 452  4717.27
 453  4814.284
 454  5380.992
 455  6158.187
 456  6939.334
 457  7050.861
 458  5793.825
 459  6066.613
 460  6129.524
 461  7111.687
 462  7008.335
 463  6796.288
 464  6883.337
 465  5668.643
 466  6468.648
 467  6306.224
 468  6777.66
 469  6921.52
 470  5987.507
 471  4420.916
 472  4769.67
 473  6578.765
 474  6699.772
 475  7604.226
 476  7412.344
 477  6350.153
 478  5301.88
 479  5397.987
 480  7005.568
 481  7169.179
 482  6455.105
 483  6767.892
 484  5918.183
 485  5620.683
 486  5981.457
 487  6141.406
 488  5967.316
 489  5494.968
 490  5075.003
 491  5577.934
 492  6557.451
 493  7074.703
 494  6750.863
 495  5560.302
 496  5396.938
 497  5967.894
 498  7216.729
 499  7247.566
 500  6989.062
 501  6326.999
 502  5561.379
 503  6600.97
 504  7265.345
 505  7202.798
 506  6659.924
 507  6364.455
 508  5869.671
 509  5993.709
 510  6962.887
 511  6856.394
