# Input file       =  1208340608.107277_cleaned.dat
# Candidate        =  PSR_0332+5434
# Telescope        =  AR
# Epoch_topo       =  58229.423924852745
# Epoch_bary       =  N/A
# T_sample         =  0.002
# Data Folded      =  7340032
# Data Avg         =  0.21392840569024 
# Data StdDev      =  6.05340829362259 
# Profile Bins     =  1024
# Profile Avg      =  1533.61812605038 
# Profile StdDev   =  512.50601373636  
# Reduced chi-sqr  =  0.867
# Prob(Noise)      <  0.999   (~0.0 sigma)
# P_topo (ms)      =  714.555028656848  +/- 0.000541
# P'_topo (s/s)    =  -0                +/- 2.86e-10
# P''_topo (s/s^2) =  0                 +/- 1.26e-13
# P_bary (ms)      =  N/A
# P'_bary (s/s)    =  N/A
# P''_bary (s/s^2) =  N/A
# P_orb (s)        =  N/A
# asin(i)/c (s)    =  N/A
# eccentricity     =  N/A
# w (rad)          =  N/A
# T_peri           =  N/A
######################################################
   0  1235.71
   1  1343.494
   2  1343.911
   3  1312.936
   4  1446.922
   5  1626.03
   6  1538.943
   7  1465.802
   8  1310.642
   9  1150.838
  10  1072.802
  11  1192.41
  12  1333.072
  13  1414.126
  14  1328.612
  15  1218.251
  16  1157.812
  17  1284.154
  18  1344.114
  19  1375.191
  20  1293.121
  21  1370.625
  22  1282.711
  23  1238.985
  24  1254.631
  25  1424.606
  26  1413.873
  27  1310.373
  28  1172.677
  29  1143.866
  30  1072.096
  31  1116.57
  32  1095.258
  33  1193.546
  34  1150.612
  35  1221.134
  36  1196.363
  37  1184.074
  38  1129.068
  39  1041.611
  40  1064.381
  41  1187.503
  42  1265.18
  43  1240.43
  44  1142.721
  45  1070.172
  46  1101.063
  47  1184.298
  48  1233.367
  49  1279.827
  50  1250.439
  51  1225.353
  52  1199.08
  53  1190.076
  54  1232.98
  55  1063.796
  56  1015.717
  57  1065.792
  58  1184.402
  59  1131.082
  60  1281.613
  61  1348.557
  62  1408.056
  63  1299.542
  64  1430.981
  65  1539.474
  66  1519.23
  67  1466.816
  68  1582.846
  69  1564.683
  70  1547.016
  71  1611.645
  72  1745.951
  73  1755.752
  74  1687.2
  75  1639.23
  76  1533.445
  77  1416.403
  78  1446.501
  79  1603.593
  80  1790.952
  81  1768.32
  82  1586.617
  83  1501.845
  84  1659.735
  85  1660.333
  86  1499.569
  87  1371.057
  88  1384.605
  89  1419.419
  90  1462.875
  91  1540.639
  92  1621.008
  93  1663.957
  94  1642.633
  95  1607.169
  96  1635.371
  97  1680.671
  98  1673.214
  99  1707.137
 100  1744.588
 101  1923.368
 102  1882.892
 103  1844.598
 104  1763.272
 105  1787.706
 106  1754.702
 107  1759.625
 108  1721.045
 109  1780.962
 110  1728.877
 111  1717.885
 112  1795.06
 113  1838.322
 114  1794.675
 115  1782.926
 116  1732.401
 117  1764.946
 118  1686.226
 119  1538.204
 120  1526.659
 121  1605.675
 122  1728.753
 123  1761.62
 124  1673.573
 125  1745.524
 126  1814.45
 127  1762.279
 128  1556.04
 129  1401.403
 130  1303.413
 131  1289.775
 132  1338.266
 133  1385.584
 134  1393.24
 135  1293.855
 136  1395.423
 137  1490.266
 138  1531.679
 139  1404.062
 140  1367.567
 141  1169.7
 142  1055.519
 143  1011.417
 144  1046.161
 145  999.9469
 146  1001.501
 147  947.931
 148  991.5027
 149  998.7048
 150  1032.646
 151  989.5133
 152  1044.445
 153  1180.937
 154  1326.88
 155  1332.513
 156  1261.283
 157  1120.181
 158  1037.928
 159  1019.494
 160  1013.013
 161  1026.289
 162  1090.057
 163  1347.22
 164  1278.47
 165  1043.041
 166  1000.75
 167  1259.596
 168  1348.48
 169  1229.981
 170  1096.66
 171  1062.132
 172  1065.972
 173  1159.25
 174  1059.657
 175  1239.292
 176  1223.642
 177  1110.506
 178  1010.459
 179  994.8325
 180  1043.518
 181  929.4426
 182  985.6069
 183  994.7462
 184  1020.534
 185  906.1294
 186  1021.954
 187  1176.484
 188  1301.663
 189  1185.684
 190  1235.33
 191  1261.472
 192  1281.448
 193  1240.019
 194  1205.147
 195  1168.334
 196  1151.974
 197  1079.489
 198  1041.402
 199  1017.883
 200  1095.99
 201  1104.209
 202  1114.407
 203  1073.295
 204  1084.723
 205  1036.085
 206  1024.286
 207  931.2178
 208  1020.851
 209  1194.439
 210  1457.351
 211  1578.961
 212  1543.056
 213  1447.151
 214  1219.274
 215  1167.498
 216  1137.439
 217  1231.747
 218  1263.507
 219  1365.484
 220  1299.27
 221  1309.89
 222  1213.086
 223  1217.398
 224  1178.632
 225  1284.75
 226  1232.015
 227  1167.327
 228  1124.886
 229  1280.348
 230  1368.529
 231  1560.505
 232  1505.331
 233  1374.546
 234  1230.598
 235  1288.985
 236  1339.212
 237  1306.377
 238  1097.1
 239  1259.703
 240  1286.156
 241  1508.785
 242  1382.556
 243  1386.926
 244  1331.495
 245  1395.501
 246  1344.39
 247  1409.19
 248  1386.949
 249  1332.496
 250  1351.541
 251  1353.044
 252  1416.978
 253  1420.217
 254  1345.21
 255  1221.41
 256  1248.455
 257  1442.543
 258  1655.892
 259  1561.085
 260  1431.912
 261  1358.653
 262  1258.206
 263  1220.204
 264  1331.187
 265  1403.591
 266  1379.993
 267  1365.245
 268  1498.227
 269  1544.276
 270  1510.927
 271  1452.357
 272  1643.592
 273  1629.645
 274  1655.623
 275  1595.817
 276  1597.85
 277  1603.585
 278  1624.808
 279  1760.289
 280  1815.737
 281  1754.545
 282  1668.908
 283  1601.487
 284  1588.23
 285  1432.047
 286  1492.378
 287  1546.274
 288  1641.015
 289  1762.141
 290  1826.203
 291  1898.827
 292  1870.068
 293  1702.87
 294  1588.774
 295  1542.905
 296  1575.252
 297  1554.441
 298  1508.658
 299  1452.988
 300  1590.485
 301  1554.277
 302  1564.782
 303  1652.272
 304  1560.482
 305  1504.38
 306  1559.062
 307  1637.034
 308  1690.203
 309  1728.962
 310  1764.807
 311  1692.461
 312  1523.888
 313  1543.975
 314  1541.719
 315  1468.407
 316  1413.43
 317  1485.011
 318  1709.416
 319  1720.035
 320  1511.192
 321  1370.187
 322  1359.612
 323  1410.132
 324  1519.632
 325  1698.2
 326  1662.555
 327  1616.701
 328  1571.847
 329  1485.187
 330  1437.009
 331  1414.12
 332  1480.102
 333  1478.512
 334  1404.098
 335  1346.12
 336  1379.309
 337  1388.449
 338  1457.198
 339  1442.989
 340  1487.889
 341  1415.229
 342  1326.333
 343  1322.442
 344  1363.632
 345  1467.7
 346  1471.116
 347  1357.817
 348  1410.069
 349  1366.221
 350  1455.249
 351  1409.907
 352  1363.853
 353  1344.461
 354  1358.238
 355  1543.422
 356  1567.981
 357  1497.351
 358  1522.786
 359  1590.852
 360  1682.6
 361  1684.294
 362  1533.027
 363  1502.945
 364  1512.279
 365  1519.872
 366  1582.574
 367  1590.905
 368  1651.626
 369  1550.684
 370  1600.945
 371  1693.327
 372  1699.676
 373  1590.082
 374  1617.582
 375  1607.95
 376  1634.576
 377  1637.77
 378  1631.157
 379  1475.505
 380  1395.737
 381  1356.795
 382  1451.566
 383  1584.709
 384  1568.932
 385  1394.472
 386  1321.038
 387  1388.674
 388  1385.462
 389  1216.659
 390  1198.775
 391  1356.176
 392  1427.08
 393  1344.201
 394  1287.463
 395  1329.058
 396  1424.676
 397  1396.991
 398  1535.535
 399  1513.899
 400  1534.948
 401  1548.911
 402  1678.381
 403  1760.605
 404  1637.946
 405  1654.383
 406  1489.304
 407  1406.433
 408  1431.106
 409  1460.183
 410  1581.314
 411  1475.09
 412  1638.359
 413  1638.935
 414  1698.189
 415  1665.449
 416  1675.932
 417  1528.658
 418  1497.565
 419  1589.587
 420  1641.045
 421  1649.969
 422  1512.658
 423  1437.952
 424  1411.398
 425  1587.731
 426  1636.205
 427  1615.409
 428  1518.506
 429  1597.238
 430  1650.4
 431  1609.626
 432  1576.663
 433  1676.7
 434  1697.702
 435  1593.796
 436  1586.225
 437  1663.99
 438  1763.129
 439  1636.658
 440  1616.882
 441  1652.994
 442  1627.43
 443  1678.615
 444  1633.633
 445  1634.263
 446  1719.803
 447  1768.313
 448  1867.453
 449  1883.552
 450  1898.514
 451  1917.17
 452  1858.032
 453  1730.303
 454  1685.061
 455  1776.451
 456  1915.385
 457  1969.966
 458  1906.098
 459  1684.335
 460  1692.191
 461  1841.13
 462  2019.344
 463  2077.757
 464  2089.243
 465  1904.251
 466  1756.544
 467  1743.467
 468  1724.764
 469  1793.081
 470  1784.623
 471  1873.703
 472  1849.134
 473  1905.207
 474  1863.611
 475  1868.501
 476  1818.381
 477  1856.918
 478  1791.437
 479  1815.162
 480  1881.564
 481  1956.567
 482  1932.451
 483  1789.669
 484  1638.413
 485  1705.793
 486  1691.638
 487  1839.892
 488  1920.074
 489  1949.127
 490  1868.94
 491  1767.969
 492  1730.844
 493  1908.879
 494  1963.878
 495  1819.722
 496  1614.543
 497  1582.344
 498  1725.521
 499  1825.549
 500  1908.959
 501  1834.206
 502  1843.525
 503  1821.75
 504  1846.933
 505  1721.476
 506  1724.176
 507  1678.762
 508  1742.667
 509  1748.535
 510  1807.127
 511  1711.61
 512  1750.554
 513  1759.92
 514  1651.536
 515  1544.495
 516  1633.871
 517  1697.879
 518  1724.582
 519  1663.225
 520  1707.221
 521  1739.064
 522  1682.201
 523  1583.679
 524  1569.593
 525  1652.05
 526  1726.295
 527  1663.397
 528  1611.047
 529  1640.915
 530  1673.369
 531  1747.757
 532  1713.099
 533  1677.611
 534  1662.995
 535  1675.328
 536  1805.527
 537  2027.115
 538  2048.689
 539  1952.635
 540  1873.536
 541  1857.542
 542  1887.728
 543  1783.598
 544  1712.363
 545  1656.957
 546  1741.013
 547  1795.486
 548  1698.39
 549  1577.702
 550  1629.506
 551  1762.569
 552  1765.29
 553  1709.357
 554  1767.148
 555  1896.324
 556  1992.279
 557  1838.276
 558  1722.568
 559  1759.141
 560  1747.096
 561  1782.578
 562  1714.823
 563  1702.511
 564  1742.696
 565  1702.722
 566  1710.812
 567  1655.965
 568  1521.051
 569  1508.513
 570  1544.052
 571  1706.078
 572  1649.642
 573  1615.339
 574  1602.825
 575  1587.118
 576  1488.63
 577  1487.15
 578  1511.912
 579  1581.112
 580  1563.729
 581  1716.366
 582  1639.922
 583  1489.465
 584  1440.333
 585  1417.038
 586  1286.746
 587  1264.111
 588  1371.984
 589  1528.814
 590  1560.721
 591  1533.608
 592  1539.366
 593  1549.848
 594  1644.237
 595  1733.669
 596  1856.464
 597  2014.592
 598  2241.725
 599  2379.429
 600  2464.898
 601  2632.542
 602  2687.058
 603  2672.561
 604  2642.923
 605  2449.715
 606  2361.237
 607  2202.234
 608  2010.667
 609  1784.023
 610  1557.379
 611  1514.361
 612  1564.271
 613  1643.594
 614  1666.89
 615  1633.387
 616  1672.393
 617  1700.239
 618  1563.048
 619  1499.555
 620  1572.797
 621  1698.057
 622  1805.848
 623  1753.222
 624  1673.282
 625  1576.626
 626  1627.932
 627  1724.829
 628  1754.948
 629  1756.177
 630  1692.733
 631  1639.939
 632  1633.574
 633  1672.897
 634  1740.518
 635  1773.208
 636  1860.517
 637  1766.148
 638  1553.063
 639  1431.121
 640  1559.424
 641  1696.255
 642  1559.105
 643  1549.258
 644  1584.103
 645  1846.16
 646  1806.232
 647  1773.552
 648  1685.091
 649  1690.55
 650  1747.538
 651  1683.224
 652  1601.871
 653  1687.397
 654  1724.434
 655  1573.342
 656  1414.005
 657  1390.402
 658  1529.881
 659  1634.459
 660  1704.297
 661  1462.36
 662  1485.377
 663  1573.133
 664  1844.716
 665  1884.512
 666  1812.382
 667  1712.276
 668  1673.513
 669  1612.611
 670  1695.838
 671  1750.736
 672  1803.014
 673  1758.161
 674  1736.261
 675  1900.103
 676  1814.833
 677  1803.589
 678  1825.059
 679  1739.013
 680  1773.363
 681  1732.29
 682  1739.594
 683  1813.581
 684  1935.943
 685  1848.007
 686  1815.283
 687  1728.116
 688  1724.072
 689  1797.835
 690  1756.186
 691  1801.325
 692  1810.181
 693  1778.839
 694  1787.942
 695  1899.569
 696  1863.122
 697  1925.204
 698  1939.473
 699  1951.228
 700  1921.273
 701  1797.62
 702  1731.1
 703  1659.497
 704  1605.864
 705  1601.392
 706  1719.833
 707  1827.949
 708  1735.5
 709  1479.481
 710  1347.143
 711  1370.027
 712  1392.695
 713  1493.095
 714  1704.6
 715  1592.249
 716  1435.914
 717  1353.332
 718  1454.894
 719  1555.019
 720  1587.033
 721  1630.109
 722  1594.5
 723  1576.726
 724  1649.825
 725  1845.558
 726  1797.952
 727  1699.182
 728  1620.903
 729  1494.169
 730  1428.239
 731  1304.796
 732  1308.493
 733  1334.35
 734  1405.807
 735  1355.197
 736  1270.019
 737  1259.98
 738  1373.882
 739  1515.922
 740  1615.045
 741  1599.83
 742  1536.823
 743  1465.488
 744  1490.907
 745  1413.489
 746  1373.21
 747  1206.724
 748  1185.457
 749  1201.114
 750  1297.693
 751  1279.239
 752  1297.475
 753  1266.183
 754  1310.315
 755  1439.689
 756  1594.392
 757  1511.308
 758  1533.739
 759  1472.431
 760  1356.796
 761  1109.434
 762  1031.741
 763  1171.853
 764  1108.285
 765  1116.875
 766  1183.29
 767  1300.194
 768  1298.813
 769  1340.422
 770  1277.249
 771  1256.084
 772  1249.727
 773  1382.575
 774  1484.865
 775  1520.214
 776  1546.73
 777  1575.587
 778  1455.453
 779  1341.357
 780  1286.622
 781  1322.112
 782  1439.771
 783  1516.677
 784  1508.894
 785  1456.326
 786  1385.458
 787  1325.724
 788  1314.93
 789  1359.682
 790  1444.286
 791  1485.607
 792  1352.544
 793  1274.573
 794  1320.255
 795  1358.589
 796  1449.4
 797  1573.408
 798  1618.961
 799  1600.079
 800  1639.741
 801  1637.165
 802  1721.602
 803  1626.229
 804  1734.261
 805  1655.246
 806  1639.506
 807  1595.966
 808  1513.191
 809  1622.148
 810  1659.823
 811  1679.249
 812  1552.292
 813  1533.35
 814  1575.745
 815  1522.715
 816  1570.068
 817  1625.976
 818  1824.731
 819  1780.657
 820  1694.762
 821  1711.122
 822  1749.43
 823  1791.699
 824  1800.387
 825  1770.806
 826  1659.603
 827  1495.844
 828  1390.138
 829  1412.583
 830  1411.767
 831  1502.501
 832  1492.997
 833  1632.339
 834  1721.634
 835  1681.95
 836  1677.44
 837  1620.254
 838  1785.554
 839  1586.761
 840  1543.607
 841  1608.031
 842  1592.183
 843  1595.291
 844  1458.136
 845  1470.753
 846  1496.202
 847  1582.465
 848  1639.72
 849  1647.047
 850  1520.151
 851  1409.642
 852  1415.101
 853  1514.545
 854  1577.126
 855  1549.544
 856  1532.71
 857  1525.52
 858  1607.838
 859  1506.224
 860  1297.763
 861  1211.344
 862  1333.081
 863  1436.271
 864  1401.83
 865  1406.067
 866  1477.106
 867  1410.198
 868  1345.131
 869  1381.719
 870  1302.647
 871  1293.746
 872  1290.99
 873  1364.775
 874  1439.995
 875  1308.71
 876  1166.517
 877  1158.973
 878  1344.404
 879  1421.935
 880  1405.571
 881  1265.958
 882  1230.56
 883  1236.955
 884  1211.526
 885  1296.108
 886  1243.979
 887  1286.634
 888  1217.109
 889  1347.84
 890  1387.967
 891  1361.781
 892  1306.312
 893  1241.442
 894  1272.414
 895  1239.573
 896  1264.011
 897  1277.354
 898  1309.302
 899  1429.184
 900  1406.188
 901  1258.766
 902  1152.23
 903  1189.523
 904  1315.591
 905  1383.188
 906  1313.304
 907  1229.156
 908  1199.998
 909  1186.437
 910  1300.771
 911  1319.847
 912  1278.633
 913  1124.481
 914  1108.541
 915  1132.024
 916  1179.532
 917  1133.439
 918  1112.374
 919  1210.894
 920  1225.255
 921  1331.759
 922  1280.197
 923  1211.117
 924  1329.249
 925  1276.692
 926  1341.24
 927  1179.998
 928  1209.848
 929  1175.307
 930  1301.949
 931  1295.591
 932  1446.813
 933  1428.824
 934  1423.288
 935  1348.571
 936  1384.558
 937  1410.134
 938  1347.804
 939  1349.833
 940  1377.016
 941  1326.643
 942  1201.375
 943  1303.842
 944  1379.32
 945  1465.187
 946  1580.679
 947  1629.856
 948  1495.444
 949  1482.051
 950  1457.404
 951  1567.949
 952  1540.098
 953  1527.032
 954  1606.184
 955  1720.247
 956  1766.842
 957  1762.055
 958  1686.898
 959  1783.035
 960  1848.79
 961  1830.872
 962  1712.342
 963  1796.288
 964  1894.822
 965  2031.036
 966  2075.125
 967  2091.605
 968  2040.93
 969  1997.373
 970  2026.814
 971  2070.468
 972  2073.7
 973  2146.065
 974  2069.273
 975  2107.083
 976  2151.661
 977  2206.222
 978  2129.385
 979  2174.583
 980  2174.13
 981  2124.823
 982  2013.146
 983  2031.471
 984  2067.122
 985  2064.826
 986  1933.624
 987  1906.638
 988  1871.599
 989  1855.151
 990  2081.495
 991  2205.226
 992  2094.719
 993  1900.156
 994  1905.12
 995  1944.551
 996  1837.695
 997  1741.214
 998  1647.319
 999  1789.539
1000  1799.815
1001  1887.241
1002  1906.21
1003  1762.445
1004  1715.419
1005  1686.914
1006  1728.673
1007  1680.318
1008  1508.614
1009  1460.617
1010  1437.133
1011  1437.955
1012  1676.722
1013  1612.855
1014  1547.49
1015  1403.3
1016  1322.96
1017  1337.752
1018  1357.64
1019  1487.307
1020  1482.361
1021  1465.615
1022  1290.891
1023  1276.623
