# Input file       =  1208928641.108855_cleaned.dat
# Candidate        =  PSR_0332+5434
# Telescope        =  AR
# Epoch_topo       =  58236.229862371008
# Epoch_bary       =  N/A
# T_sample         =  0.002
# Data Folded      =  7208960
# Data Avg         =  0.265957529715853
# Data StdDev      =  5.63604302384678 
# Profile Bins     =  256
# Profile Avg      =  7489.18937470098 
# Profile StdDev   =  945.781086732506 
# Reduced chi-sqr  =  1.830
# Prob(Noise)      <  1.33e-14   (~7.6 sigma)
# P_topo (ms)      =  714.549182887107  +/- 3.83e-05
# P'_topo (s/s)    =  -0                +/- 2.06e-11
# P''_topo (s/s^2) =  0                 +/- 9.24e-15
# P_bary (ms)      =  N/A
# P'_bary (s/s)    =  N/A
# P''_bary (s/s^2) =  N/A
# P_orb (s)        =  N/A
# asin(i)/c (s)    =  N/A
# eccentricity     =  N/A
# w (rad)          =  N/A
# T_peri           =  N/A
######################################################
   0  8213.498
   1  6645.547
   2  6930.57
   3  7729.795
   4  7349.292
   5  5972.208
   6  6309.785
   7  8038.395
   8  8615.496
   9  8311.595
  10  7054.026
  11  7186.102
  12  7807.75
  13  6245.254
  14  5875.125
  15  7478.792
  16  9153.008
  17  8651.52
  18  6540.271
  19  7061.351
  20  7816.055
  21  7355.593
  22  5996.737
  23  7539.186
  24  8869.617
  25  9056.386
  26  8540.604
  27  7776.523
  28  7466.497
  29  7298.308
  30  7140.348
  31  7509.192
  32  8593.424
  33  9433.846
  34  8359.821
  35  7708.565
  36  7705.614
  37  7049.647
  38  6665.822
  39  6796.672
  40  9865.188
  41  8523.545
  42  8206.739
  43  6964.609
  44  7075.862
  45  7406.985
  46  6926.19
  47  6470.896
  48  8810.849
  49  9777.555
  50  9071.163
  51  6449.616
  52  6238.525
  53  8020.668
  54  7192.822
  55  5133.709
  56  6675.294
  57  8917.734
  58  9367.122
  59  7267.628
  60  6142.349
  61  7149.689
  62  7252.328
  63  6185.473
  64  5880.086
  65  7680.247
  66  8802.564
  67  8355.147
  68  6643.955
  69  6032.619
  70  6624.544
  71  7139.56
  72  6053.518
  73  8052.174
  74  8185.95
  75  8258.182
  76  7227.61
  77  7920.779
  78  6895.297
  79  7254.723
  80  7518.625
  81  7934.28
  82  9135.235
  83  8245.809
  84  6385.394
  85  7204.51
  86  8045.917
  87  6223.102
  88  6136.247
  89  7865.186
  90  9775.655
  91  8902.271
  92  6794.472
  93  5796.092
  94  7793.065
  95  7825.845
  96  6284.979
  97  5653.626
  98  8338.778
  99  9174.877
 100  8398.361
 101  6135.724
 102  7433.514
 103  7132.723
 104  7290.718
 105  6249.48
 106  7921.7
 107  9130.246
 108  8463.424
 109  6922.861
 110  6849.69
 111  7257.397
 112  7480.241
 113  6714.137
 114  8077.725
 115  8586.974
 116  9080.102
 117  8142.83
 118  7700.803
 119  7914.914
 120  7644.843
 121  6519.172
 122  7835.098
 123  9241.004
 124  10033.92
 125  7312.908
 126  6720.607
 127  7859.58
 128  6981.54
 129  5975.288
 130  5975.842
 131  8673.303
 132  8719.403
 133  7407.171
 134  6335.042
 135  6871.737
 136  7312.975
 137  6882.556
 138  4966.898
 139  8069.418
 140  8504.531
 141  8426.054
 142  6294.629
 143  5797.375
 144  8496.377
 145  6821.993
 146  6179.236
 147  7483.05
 148  10113.31
 149  11525.37
 150  11175.8
 151  10667.67
 152  7475.233
 153  6937.549
 154  7086.696
 155  7408.072
 156  8437.978
 157  9357.578
 158  8804.289
 159  6660.052
 160  7333.46
 161  6376.723
 162  5912.83
 163  5866.449
 164  8458.05
 165  8753.28
 166  7168.438
 167  6199.816
 168  7294.691
 169  6794.7
 170  6721.375
 171  5926.971
 172  8549.082
 173  8744.817
 174  8443.938
 175  5984.698
 176  7744.219
 177  7618.62
 178  5951.375
 179  5966.207
 180  7540.325
 181  8665.559
 182  8741.593
 183  7114.778
 184  7048.593
 185  8130.704
 186  7603.979
 187  5892.471
 188  6510.042
 189  9116.403
 190  8722.389
 191  7990.361
 192  6777.176
 193  7286.437
 194  7164.986
 195  6582.841
 196  6171.454
 197  7887.398
 198  8442.055
 199  7872.07
 200  6174.564
 201  6920.792
 202  7166.301
 203  6136.254
 204  5674.556
 205  7618.553
 206  8672.382
 207  7734.275
 208  6371.45
 209  7090.061
 210  7156.718
 211  5970.321
 212  5951.934
 213  7127.628
 214  8780.499
 215  8441.38
 216  6593.746
 217  6421.808
 218  7985.696
 219  6559.997
 220  4946.812
 221  7124.109
 222  8895.715
 223  8822.882
 224  7395.89
 225  6509.224
 226  6914.976
 227  7808.462
 228  7125.942
 229  6202.287
 230  8271.438
 231  9429.304
 232  8567.444
 233  6870.763
 234  7750.664
 235  7977.561
 236  6951.684
 237  5505.362
 238  7748.401
 239  8002.612
 240  8096.556
 241  7324.565
 242  7680.298
 243  7422.901
 244  6354.166
 245  6824.71
 246  7334.723
 247  8907.34
 248  8169.629
 249  7434.708
 250  7785.02
 251  8452.339
 252  6165.05
 253  5766.617
 254  7292.753
 255  8923.299
