# Input file       =  1208441724.10273_cleaned.dat
# Candidate        =  PSR_0332+5434
# Telescope        =  AR
# Epoch_topo       =  58230.594248874193
# Epoch_bary       =  N/A
# T_sample         =  0.002
# Data Folded      =  7340032
# Data Avg         =  0.182748956389592
# Data StdDev      =  4.68098738784448 
# Profile Bins     =  256
# Profile Avg      =  5239.82922156045 
# Profile StdDev   =  792.622625181846 
# Reduced chi-sqr  =  1.895
# Prob(Noise)      <  2.69e-16   (~8.1 sigma)
# P_topo (ms)      =  714.554390085525  +/- 0.000239
# P'_topo (s/s)    =  -0                +/- 1.26e-10
# P''_topo (s/s^2) =  0                 +/- 5.56e-14
# P_bary (ms)      =  N/A
# P'_bary (s/s)    =  N/A
# P''_bary (s/s^2) =  N/A
# P_orb (s)        =  N/A
# asin(i)/c (s)    =  N/A
# eccentricity     =  N/A
# w (rad)          =  N/A
# T_peri           =  N/A
######################################################
   0  5808.688
   1  5585.472
   2  4787.131
   3  5428.816
   4  5155.079
   5  5120.812
   6  3954.652
   7  4027.625
   8  4103.03
   9  3688.197
  10  4086.241
  11  4697.208
  12  4392.401
  13  4660.701
  14  4554.17
  15  5836.313
  16  5401.209
  17  5456.302
  18  5608.606
  19  5820.387
  20  5545.392
  21  5192.514
  22  5248.926
  23  5367.086
  24  6070.34
  25  5744.487
  26  6042.688
  27  5233.804
  28  4946.77
  29  5563.137
  30  5488.606
  31  5945.583
  32  6109.663
  33  6670.15
  34  6900.281
  35  6738.736
  36  6599.1
  37  6285.547
  38  6151.065
  39  5686.117
  40  5790.526
  41  5924.45
  42  5388.158
  43  6501.342
  44  5453.249
  45  5109.165
  46  4385.479
  47  4875.516
  48  4015.209
  49  3864.978
  50  4260.566
  51  4380.826
  52  4781.609
  53  5239.926
  54  5672.604
  55  5300.603
  56  5713.494
  57  6033.591
  58  5577.976
  59  6072.437
  60  5958.053
  61  5479.996
  62  5944.25
  63  6119.501
  64  6099.732
  65  6054.234
  66  6395.29
  67  6426.922
  68  7191.966
  69  6748.088
  70  6360.25
  71  6348.099
  72  6553.66
  73  5792.522
  74  5583.984
  75  6235.464
  76  5823.226
  77  5850.992
  78  5247.063
  79  5021.916
  80  5694.099
  81  4450.955
  82  4544.09
  83  4131.434
  84  4528.038
  85  4290.263
  86  4284.288
  87  4116.225
  88  4666.648
  89  5067.009
  90  5072.637
  91  4471.792
  92  4860.382
  93  5326.655
  94  5724.37
  95  5611.812
  96  5640.783
  97  5412.206
  98  6116.631
  99  5899.69
 100  6108.562
 101  5509.233
 102  5761.413
 103  6158.379
 104  5059.766
 105  5053.637
 106  6147.263
 107  5771.645
 108  5357.378
 109  5756.252
 110  5570.5
 111  5242.419
 112  4152.701
 113  4968.877
 114  4302.278
 115  4222.269
 116  3514.883
 117  3569.899
 118  4152.642
 119  3879.062
 120  3914.344
 121  3875.092
 122  3599.844
 123  3650.041
 124  3612.509
 125  3997.763
 126  4156.659
 127  4560.798
 128  3021.883
 129  4162.747
 130  4884.624
 131  4118.78
 132  3609.443
 133  4124.527
 134  5315.571
 135  4828.662
 136  4479.658
 137  4562.656
 138  4406.011
 139  5011.125
 140  4865.356
 141  5666.832
 142  5722.47
 143  6109.208
 144  5294.375
 145  5247.906
 146  5548.549
 147  5979.121
 148  6209.519
 149  7632.319
 150  8908.31
 151  8629.795
 152  5722.984
 153  4273.76
 154  4358.365
 155  3978.204
 156  3410.132
 157  3667.235
 158  3265.855
 159  3349.492
 160  2952.499
 161  3391.401
 162  3859.193
 163  3604.323
 164  3781.969
 165  4308.886
 166  5015.271
 167  5427.725
 168  4481.576
 169  4579.804
 170  5733.017
 171  5952.417
 172  5859.113
 173  6362.376
 174  5576.897
 175  5916.954
 176  6515.001
 177  6937.42
 178  6381.973
 179  6598.565
 180  6883.993
 181  6376.325
 182  6550.031
 183  5891.787
 184  5818.825
 185  5445.609
 186  4377.231
 187  4140.538
 188  4615.523
 189  5068.021
 190  4757.578
 191  4046.029
 192  4623.707
 193  3456.156
 194  3784.058
 195  3991.026
 196  4109.877
 197  4186.681
 198  4243.839
 199  4840.135
 200  5412.163
 201  5513.236
 202  5161.373
 203  5448.173
 204  5381.363
 205  5629.566
 206  5700.193
 207  5552.149
 208  6019.846
 209  5809.74
 210  6213.479
 211  5618.085
 212  5898.07
 213  6253.227
 214  6139.364
 215  5646.281
 216  6582.227
 217  6449.281
 218  6304.413
 219  5493.846
 220  5565.338
 221  6523.414
 222  6204.997
 223  5643.916
 224  5351.195
 225  5481.335
 226  5431.06
 227  5276.372
 228  5052.812
 229  4568.154
 230  5009.09
 231  3920.668
 232  4172.358
 233  4583.613
 234  5509.552
 235  5410.158
 236  5184.072
 237  4608.142
 238  4101.827
 239  5424.373
 240  5356.695
 241  5753.865
 242  5084.306
 243  5185.141
 244  4974.797
 245  5276.465
 246  5426.885
 247  5643.071
 248  5500.147
 249  5533.566
 250  5796.766
 251  6414.165
 252  5743.464
 253  6274.156
 254  5237.734
 255  5321.656
