# Input file       =  1208082048.119238_cleaned.dat
# Candidate        =  PSR_0332+5434
# Telescope        =  AR
# Epoch_topo       =  58226.431332398584
# Epoch_bary       =  N/A
# T_sample         =  0.002
# Data Folded      =  7340032
# Data Avg         =  0.245984287178933
# Data StdDev      =  5.60547067113564 
# Profile Bins     =  256
# Profile Avg      =  7053.31223964172 
# Profile StdDev   =  949.163608146639 
# Reduced chi-sqr  =  2.479
# Prob(Noise)      <  5.51e-34   (~12.1 sigma)
# P_topo (ms)      =  714.557475962818  +/- 0.000184
# P'_topo (s/s)    =  -0                +/- 9.73e-11
# P''_topo (s/s^2) =  0                 +/- 4.3e-14
# P_bary (ms)      =  N/A
# P'_bary (s/s)    =  N/A
# P''_bary (s/s^2) =  N/A
# P_orb (s)        =  N/A
# asin(i)/c (s)    =  N/A
# eccentricity     =  N/A
# w (rad)          =  N/A
# T_peri           =  N/A
######################################################
   0  7645.556
   1  7076.191
   2  7444.174
   3  7709.425
   4  8175.069
   5  7932.568
   6  7273.021
   7  7215.843
   8  7930.193
   9  7528.89
  10  7192.42
  11  7161.52
  12  7315.747
  13  6912.602
  14  6954.026
  15  6790.591
  16  6114.533
  17  5609.083
  18  6770.555
  19  6388.764
  20  6541.286
  21  7869.795
  22  7635.294
  23  7369.216
  24  7349.376
  25  7082.477
  26  7569.72
  27  8423.446
  28  8553.555
  29  8307.792
  30  9470.466
  31  10012.53
  32  9979.271
  33  9802.378
  34  9694.733
  35  9641.088
  36  9183.488
  37  8591.074
  38  9222.072
  39  8621.131
  40  8004.875
  41  7626.38
  42  8399.614
  43  7866.593
  44  7624.876
  45  7626.775
  46  8399.815
  47  7879.623
  48  7378.763
  49  7723.333
  50  7561.251
  51  6248.804
  52  5993.428
  53  6231.836
  54  6097.614
  55  5905.811
  56  6345.823
  57  5748.076
  58  5354.576
  59  5757.502
  60  5786.272
  61  5819.566
  62  5265.716
  63  6001.071
  64  7191.761
  65  7996.64
  66  7659.422
  67  7850.423
  68  8280.063
  69  8426.834
  70  8232.892
  71  8587.368
  72  8338.309
  73  7846.955
  74  7377.323
  75  7149.944
  76  7000.027
  77  5943.36
  78  6105.903
  79  6416.591
  80  6469.307
  81  5999.318
  82  5761.547
  83  5982.684
  84  6004.654
  85  6398.978
  86  5230.672
  87  5323.951
  88  5992.502
  89  5733.903
  90  5186.461
  91  5129.726
  92  5590.809
  93  5825.767
  94  5654.738
  95  5943.694
  96  6214.333
  97  6315.453
  98  7546.874
  99  7487.314
 100  7576.172
 101  8146.96
 102  8331.978
 103  8117.993
 104  8576.038
 105  8718.893
 106  7940.245
 107  7602.76
 108  8124.895
 109  7529.997
 110  7148.823
 111  6363.4
 112  7035.69
 113  7539.638
 114  6573.074
 115  7271.554
 116  6287.169
 117  5891.241
 118  5137.941
 119  4976.209
 120  4593.441
 121  4517.387
 122  4355.588
 123  4756.731
 124  4649.18
 125  4328.695
 126  4773.475
 127  4652.815
 128  4706.728
 129  4283.861
 130  5451.627
 131  5532.4
 132  5596.193
 133  6013.478
 134  5359.366
 135  5271.179
 136  6129.316
 137  7019.84
 138  7013.027
 139  6698.974
 140  7437.631
 141  7899.2
 142  7527.405
 143  7446.767
 144  7900.892
 145  8265.251
 146  8230.476
 147  8696.889
 148  8441.607
 149  8657.61
 150  10718.4
 151  10805.81
 152  8537.651
 153  8149.488
 154  7354.675
 155  7226.535
 156  7665.413
 157  7129.507
 158  6835.215
 159  6383.251
 160  5811.675
 161  5759.743
 162  5366.162
 163  4712.453
 164  4827.452
 165  4319.521
 166  4698.641
 167  5139.04
 168  4599.953
 169  5407.097
 170  6094.384
 171  6442.501
 172  6451.037
 173  5871.924
 174  6898.448
 175  7365.167
 176  7644.333
 177  8712.692
 178  8418.741
 179  8373.258
 180  8607.136
 181  8947.426
 182  9033.26
 183  8349.768
 184  9216.482
 185  8718.575
 186  7722.997
 187  7837.75
 188  8030.592
 189  7261.363
 190  6679.695
 191  7547.275
 192  7706.052
 193  7552.387
 194  6970.701
 195  6795.582
 196  6751.074
 197  6211.67
 198  5798.874
 199  6296.1
 200  6642.84
 201  6914.8
 202  6445.671
 203  5699.1
 204  5944.424
 205  6241.542
 206  5084.136
 207  5932.362
 208  6432.36
 209  6881.583
 210  7106.001
 211  7096.27
 212  7337.708
 213  7886.92
 214  7861.473
 215  7907.755
 216  8688.942
 217  8531.097
 218  7879.193
 219  8177.585
 220  7805.162
 221  7190.46
 222  7319.002
 223  6613.735
 224  7156.607
 225  6309.489
 226  6255.083
 227  6161.393
 228  6217.009
 229  5831.818
 230  6283.053
 231  6366.199
 232  6445.789
 233  6192.917
 234  5744.112
 235  6486.229
 236  6664.588
 237  5912.561
 238  6740.39
 239  6304.673
 240  6451.074
 241  6930.725
 242  6933.382
 243  7297.43
 244  7905.215
 245  8406.637
 246  7670.876
 247  8933.931
 248  9081.026
 249  8320.715
 250  8658.171
 251  9122.067
 252  9230.504
 253  9226.104
 254  8556.399
 255  8473.564
