# Input file       =  1208498346.111598_cleaned.dat
# Candidate        =  PSR_0332+5434
# Telescope        =  AR
# Epoch_topo       =  58231.249596199050
# Epoch_bary       =  N/A
# T_sample         =  0.002
# Data Folded      =  7208960
# Data Avg         =  0.268377500793642
# Data StdDev      =  6.21577315261835 
# Profile Bins     =  256
# Profile Avg      =  7557.61814050997 
# Profile StdDev   =  1043.06526090954 
# Reduced chi-sqr  =  1.501
# Prob(Noise)      <  3.72e-07   (~4.9 sigma)
# P_topo (ms)      =  714.553474074665  +/- 7.17e-05
# P'_topo (s/s)    =  -0                +/- 3.85e-11
# P''_topo (s/s^2) =  0                 +/- 1.73e-14
# P_bary (ms)      =  N/A
# P'_bary (s/s)    =  N/A
# P''_bary (s/s^2) =  N/A
# P_orb (s)        =  N/A
# asin(i)/c (s)    =  N/A
# eccentricity     =  N/A
# w (rad)          =  N/A
# T_peri           =  N/A
######################################################
   0  8148.463
   1  8503.565
   2  7650.096
   3  8409.6
   4  8327.659
   5  6445.49
   6  5619.804
   7  6882.334
   8  9192.435
   9  9083.023
  10  6794.466
  11  6378.168
  12  8776.142
  13  7678.381
  14  5002.795
  15  5298.66
  16  8271.464
  17  9053.371
  18  7361.335
  19  7101.781
  20  7547.687
  21  6536.978
  22  6014.007
  23  5072.662
  24  6801.48
  25  9213.767
  26  7780.603
  27  6172.947
  28  6951.424
  29  6982.4
  30  6485.546
  31  6810.861
  32  7947.172
  33  6889.415
  34  8330.896
  35  7848.12
  36  7942.793
  37  7200.253
  38  6198.645
  39  6867.852
  40  7509.112
  41  7814.289
  42  8549.201
  43  7698.371
  44  7762.621
  45  7654.395
  46  7267.5
  47  6481.675
  48  6072.211
  49  7195.953
  50  8354.914
  51  7587.328
  52  7107.853
  53  7873.395
  54  8297.789
  55  6666.596
  56  5207.846
  57  6798.716
  58  8913.183
  59  8632.911
  60  6362.105
  61  7265.773
  62  6779.494
  63  7219.417
  64  6005.341
  65  7434.708
  66  7761.364
  67  9385.531
  68  7612.322
  69  7731.517
  70  7681.676
  71  7897.338
  72  5373.39
  73  6647.042
  74  7988.69
  75  8137.475
  76  7399.384
  77  8297.179
  78  8408.895
  79  7202.22
  80  6283.157
  81  7521.193
  82  8754.563
  83  8080.602
  84  9537.207
  85  9047.012
  86  9086.307
  87  6649.341
  88  6579.782
  89  7638.579
  90  8605.363
  91  8460.403
  92  8503.274
  93  8049.5
  94  8157.902
  95  7353.972
  96  7827.034
  97  6138.631
  98  6964.358
  99  8252.165
 100  9114.082
 101  8049.957
 102  7182.367
 103  5465.477
 104  7363.906
 105  6984.158
 106  6167.768
 107  6890.543
 108  8280.48
 109  9010.797
 110  7127.433
 111  6009.854
 112  6263.524
 113  7870.241
 114  6837.602
 115  6587.303
 116  7839.682
 117  9974.739
 118  7344.397
 119  6575.86
 120  7439.749
 121  7670.094
 122  6946.823
 123  7686.812
 124  8334.931
 125  10468.05
 126  8803.425
 127  7834.314
 128  7726.567
 129  7501.77
 130  5355.931
 131  7280.396
 132  9020.794
 133  9401.134
 134  7205.46
 135  7199.406
 136  8991.804
 137  8899.907
 138  5308.271
 139  6312.755
 140  8888.35
 141  9419.314
 142  7693.764
 143  7041.192
 144  7032.948
 145  7717.504
 146  8677.074
 147  7506.456
 148  6928.25
 149  10826.93
 150  13871.5
 151  10277.69
 152  6950.292
 153  7990.982
 154  8201.385
 155  6539.86
 156  7414.126
 157  8201.431
 158  9227.619
 159  7849.292
 160  7148.992
 161  7591.111
 162  7578.375
 163  5787.714
 164  7815.461
 165  7874.562
 166  9041.688
 167  8666.375
 168  8931.715
 169  7570.244
 170  7292.144
 171  6846.431
 172  7827.728
 173  7700.483
 174  7860.964
 175  8111.27
 176  6987.935
 177  6851.344
 178  6706.688
 179  6894.875
 180  6072.8
 181  7222.447
 182  7932.968
 183  7734.542
 184  7239.134
 185  7263.974
 186  5581.535
 187  6178.86
 188  5396.183
 189  5833.844
 190  7025.017
 191  8270.437
 192  6949.429
 193  7299.053
 194  6588.221
 195  6865.403
 196  7068.459
 197  7035.135
 198  8009.758
 199  8736.354
 200  7706.605
 201  8630.344
 202  7363.978
 203  6936.477
 204  7054.507
 205  7008.839
 206  7179.905
 207  8729.321
 208  9098.091
 209  7821.013
 210  8248.975
 211  7550.776
 212  7025.094
 213  7200.322
 214  9570.526
 215  8809.866
 216  8394.727
 217  7393.269
 218  7070.13
 219  6816.079
 220  7245.679
 221  6570.299
 222  7835.104
 223  7565.757
 224  7850.997
 225  6945.634
 226  7541.027
 227  5398.763
 228  6690.114
 229  7277.347
 230  7617.539
 231  6458.795
 232  8318.934
 233  8107.034
 234  7324.105
 235  6110.399
 236  6138.218
 237  7808.398
 238  6730.346
 239  7097.085
 240  8574.941
 241  8558.594
 242  7732.544
 243  8889.181
 244  8013.159
 245  7915.101
 246  7959.174
 247  8827.27
 248  8736.385
 249  9324.946
 250  8414.92
 251  8439.463
 252  6907.54
 253  5638.878
 254  5535.773
 255  7966.177
