# Input file       =  1208943319.116623_cleaned.dat
# Candidate        =  PSR_0332+5434
# Telescope        =  AR
# Epoch_topo       =  58236.399746720170
# Epoch_bary       =  N/A
# T_sample         =  0.002
# Data Folded      =  7340032
# Data Avg         =  0.25245507908195 
# Data StdDev      =  5.74384918076479 
# Profile Bins     =  256
# Profile Avg      =  7238.4458186996  
# Profile StdDev   =  972.594976036205 
# Reduced chi-sqr  =  1.252
# Prob(Noise)      <  0.00381   (~2.7 sigma)
# P_topo (ms)      =  714.549044149538  +/- 0.00042
# P'_topo (s/s)    =  -0                +/- 2.21e-10
# P''_topo (s/s^2) =  0                 +/- 9.77e-14
# P_bary (ms)      =  N/A
# P'_bary (s/s)    =  N/A
# P''_bary (s/s^2) =  N/A
# P_orb (s)        =  N/A
# asin(i)/c (s)    =  N/A
# eccentricity     =  N/A
# w (rad)          =  N/A
# T_peri           =  N/A
######################################################
   0  7049.655
   1  6480.959
   2  6814.266
   3  7384.394
   4  7783.505
   5  7636.704
   6  7577.666
   7  7753.547
   8  7039.819
   9  8243.942
  10  8436.36
  11  7491.831
  12  7393.257
  13  7022.755
  14  7001.321
  15  6100.85
  16  6289.183
  17  6668.275
  18  7015.219
  19  6314.606
  20  6811.963
  21  6874.046
  22  6999.692
  23  6761.438
  24  6144.421
  25  5599.045
  26  6185.93
  27  6380.135
  28  7520.427
  29  7143.154
  30  6858.207
  31  7148.021
  32  7433.964
  33  7741.804
  34  7678.455
  35  7413.988
  36  7851.174
  37  7634.302
  38  7822.897
  39  7391.96
  40  6264.678
  41  6404.793
  42  6603.903
  43  6094.117
  44  6376.491
  45  6354.202
  46  6893.161
  47  6533.054
  48  6672.96
  49  7167.833
  50  6852.261
  51  6459.801
  52  5683.244
  53  6990.048
  54  6708.351
  55  7192.971
  56  5732.204
  57  6486.545
  58  7339.334
  59  8014.763
  60  7610.544
  61  7449.895
  62  7660.043
  63  7346.715
  64  7833.8
  65  8008.573
  66  7564.634
  67  8059.394
  68  8123.535
  69  8203.835
  70  8164.81
  71  8303.078
  72  8752.614
  73  7656.536
  74  8105.8
  75  7716.203
  76  7592.76
  77  7360.9
  78  8203.396
  79  7816.175
  80  8423.748
  81  7846.592
  82  8353.399
  83  7385.296
  84  6656.623
  85  6563.286
  86  7149.323
  87  6880.229
  88  7568.346
  89  7504.948
  90  7567.766
  91  7696.643
  92  6578.743
  93  6903.198
  94  6859.234
  95  6463.167
  96  6717.279
  97  6641.989
  98  7689.385
  99  7371.78
 100  7641.828
 101  7798.863
 102  7729.847
 103  8011.916
 104  8349.068
 105  7236.021
 106  7682.749
 107  7271.03
 108  6951.534
 109  6585.349
 110  7677.023
 111  7518.823
 112  7432.048
 113  8145.632
 114  6872.18
 115  6973.521
 116  7365.509
 117  6701.231
 118  6646.82
 119  6182.146
 120  7145.029
 121  6639.697
 122  6333.204
 123  6123.355
 124  6038.141
 125  6188.94
 126  6217.213
 127  6913.071
 128  7398.542
 129  7171.419
 130  6493.296
 131  7054.518
 132  7230.292
 133  6980.935
 134  7329.442
 135  7609.353
 136  7755.445
 137  7430.86
 138  8253.829
 139  7910.333
 140  7677.929
 141  7656.674
 142  7848.875
 143  7008.365
 144  7586.35
 145  7199.06
 146  7702.226
 147  8346.47
 148  8367.842
 149  9674.528
 150  11827.6
 151  11439.51
 152  8272.085
 153  7331.886
 154  7729.529
 155  7688.104
 156  6774.046
 157  7038.431
 158  8041.862
 159  6978.593
 160  6319.796
 161  7385.818
 162  7413.33
 163  7142.45
 164  6891.2
 165  7322.603
 166  7772.63
 167  7762.593
 168  7462.965
 169  8391.985
 170  7766.554
 171  8173.264
 172  8074.93
 173  7967.565
 174  7993.399
 175  7675.476
 176  7352.554
 177  7544.152
 178  8120.542
 179  8777.56
 180  8194.512
 181  8268.137
 182  8408.596
 183  8886.819
 184  9548.554
 185  8886.704
 186  8723.98
 187  8839.618
 188  8994.9
 189  8499.615
 190  8202.883
 191  6876.365
 192  6777.431
 193  7807.17
 194  7277.129
 195  7507.28
 196  7183.798
 197  8437.1
 198  7880.043
 199  6950.711
 200  6889.072
 201  5681.076
 202  6342.872
 203  6014.446
 204  6659.766
 205  5175.719
 206  6446.288
 207  6895.932
 208  6997.283
 209  5977.563
 210  6009.404
 211  6517.527
 212  6957.655
 213  6919.13
 214  7475.141
 215  7549.943
 216  7120.523
 217  8040.284
 218  8301.008
 219  8440.766
 220  8907.57
 221  8694.702
 222  7667.442
 223  7904.128
 224  7724.928
 225  7709.791
 226  7592.242
 227  8121.628
 228  7563.139
 229  6874.045
 230  6411.019
 231  6462.928
 232  6184.531
 233  6020.865
 234  5984.833
 235  5716.534
 236  5980
 237  6218.513
 238  5414.14
 239  6125.15
 240  5670.851
 241  4980.31
 242  4504.652
 243  5044.815
 244  6013.434
 245  5849.881
 246  5411.432
 247  5528.504
 248  5521.639
 249  5626.248
 250  5606.332
 251  6438.351
 252  6554.382
 253  6677.2
 254  6638.871
 255  6570.892
