# Input file       =  1208426804.106366_cleaned.dat
# Candidate        =  PSR_0332+5434
# Telescope        =  AR
# Epoch_topo       =  58230.421563731084
# Epoch_bary       =  N/A
# T_sample         =  0.002
# Data Folded      =  7340032
# Data Avg         =  0.0426239617992716
# Data StdDev      =  0.999954791097188
# Profile Bins     =  512
# Profile Avg      =  610.575765222396 
# Profile StdDev   =  119.727623377561 
# Reduced chi-sqr  =  1.602
# Prob(Noise)      <  1.24e-16   (~8.2 sigma)
# P_topo (ms)      =  714.554195014597  +/- 0.000366
# P'_topo (s/s)    =  -0                +/- 1.93e-10
# P''_topo (s/s^2) =  0                 +/- 8.52e-14
# P_bary (ms)      =  N/A
# P'_bary (s/s)    =  N/A
# P''_bary (s/s^2) =  N/A
# P_orb (s)        =  N/A
# asin(i)/c (s)    =  N/A
# eccentricity     =  N/A
# w (rad)          =  N/A
# T_peri           =  N/A
######################################################
   0  1443.206
   1  1251.503
   2  995.2737
   3  761.4798
   4  680.5059
   5  722.7847
   6  674.8772
   7  629.9583
   8  681.5898
   9  600.5692
  10  641.4934
  11  706.7159
  12  673.0451
  13  649.7104
  14  714.0319
  15  664.9185
  16  713.2827
  17  654.8021
  18  691.1936
  19  607.776
  20  676.1066
  21  704.8343
  22  643.9625
  23  567.927
  24  555.3837
  25  535.3705
  26  651.3576
  27  724.3089
  28  712.9142
  29  677.0568
  30  555.7198
  31  549.4604
  32  607.718
  33  585.788
  34  568.3453
  35  593.0748
  36  586.1987
  37  523.6722
  38  575.9619
  39  628.8588
  40  540.9684
  41  555.6945
  42  520.7843
  43  487.6503
  44  545.4565
  45  605.8807
  46  519.0695
  47  528.8652
  48  432.4209
  49  531.4108
  50  486.0934
  51  557.1971
  52  589.0793
  53  611.2169
  54  627.0848
  55  442.8655
  56  484.25
  57  481.548
  58  622.2793
  59  740.4297
  60  687.9691
  61  616.1969
  62  553.8691
  63  618.5422
  64  758.9834
  65  672.4186
  66  730.2814
  67  731.3543
  68  650.2653
  69  609.0694
  70  613.4014
  71  682.3307
  72  717.4805
  73  766.2057
  74  728.3544
  75  714.2634
  76  641.8492
  77  630.6456
  78  707.9054
  79  682.0484
  80  617.3214
  81  638.1082
  82  720.3301
  83  652.0329
  84  558.5441
  85  554.0018
  86  658.0856
  87  622.7057
  88  593.2661
  89  550.5626
  90  651.8832
  91  646.3849
  92  630.8715
  93  657.3494
  94  669.1245
  95  659.4808
  96  616.3893
  97  640.3665
  98  748.2823
  99  671.0883
 100  672.5798
 101  683.1607
 102  576.1927
 103  561.8681
 104  564.8743
 105  558.4783
 106  507.9031
 107  459.614
 108  468.0692
 109  531.8489
 110  562.7563
 111  601.1249
 112  487.3251
 113  522.7098
 114  601.7631
 115  546.2799
 116  529.5354
 117  540.3402
 118  609.4492
 119  598.0331
 120  570.3342
 121  611.8394
 122  593.4941
 123  624.9792
 124  614.6368
 125  598.1238
 126  603.9179
 127  605.4792
 128  639.6501
 129  633.4473
 130  621.0043
 131  657.3082
 132  644.4231
 133  638.908
 134  636.7439
 135  638.9031
 136  664.6732
 137  689.5081
 138  584.0668
 139  525.2703
 140  592.7489
 141  689.2468
 142  734.5859
 143  773.1996
 144  660.9785
 145  681.0342
 146  672.7598
 147  730.4163
 148  765.2128
 149  735.2847
 150  626.9715
 151  627.5007
 152  640.8853
 153  658.8218
 154  613.7971
 155  576.5746
 156  599.1536
 157  569.5538
 158  535.2394
 159  633.0067
 160  652.8311
 161  738.9081
 162  714.7224
 163  670.5289
 164  653.325
 165  739.4385
 166  696.1179
 167  672.3363
 168  710.4651
 169  806.6309
 170  668.4287
 171  700.8164
 172  634.3554
 173  592.9056
 174  513.9795
 175  551.034
 176  592.0413
 177  554.1177
 178  620.8594
 179  634.8457
 180  688.6559
 181  618.669
 182  484.6904
 183  540.1274
 184  430.3395
 185  565.9989
 186  616.4843
 187  657.1644
 188  533.9742
 189  569.7015
 190  707.976
 191  675.019
 192  607.8885
 193  615.0055
 194  632.8405
 195  632.2481
 196  670.9719
 197  691.2812
 198  637.8003
 199  572.2145
 200  476.7176
 201  619.8814
 202  593.1863
 203  676.3137
 204  693.334
 205  670.3053
 206  631.317
 207  642.8243
 208  627.2219
 209  625.6962
 210  658.9943
 211  697.7293
 212  781.1192
 213  747.1249
 214  677.5558
 215  687.2507
 216  643.4727
 217  782.4496
 218  744.2997
 219  715.6937
 220  699.5455
 221  692.0389
 222  742.4605
 223  756.2722
 224  745.6381
 225  793.3326
 226  749.0264
 227  711.7678
 228  719.9691
 229  688.9412
 230  673.3033
 231  640.5258
 232  683.2775
 233  690.1503
 234  629.7005
 235  618.7822
 236  639.3645
 237  668.9036
 238  680.3813
 239  607.7378
 240  538.0744
 241  601.1458
 242  678.7183
 243  652.8849
 244  545.1527
 245  594.3376
 246  610.8049
 247  624.3577
 248  616.114
 249  647.2474
 250  594.3922
 251  661.9276
 252  713.8999
 253  589.3727
 254  585.6489
 255  613.8088
 256  671.0072
 257  674.1835
 258  563.8191
 259  524.8269
 260  584.1371
 261  638.2912
 262  674.4637
 263  589.7245
 264  605.7982
 265  644.4001
 266  574.767
 267  681.4026
 268  668.1423
 269  595.119
 270  671.2762
 271  588.1306
 272  610.5173
 273  627.5459
 274  696.6306
 275  643.0504
 276  596.5438
 277  638.312
 278  629.0552
 279  621.3297
 280  608.2151
 281  742.4758
 282  734.2669
 283  559.9691
 284  556.805
 285  657.7056
 286  656.4923
 287  639.288
 288  670.289
 289  609.2501
 290  539.4695
 291  623.7988
 292  725.2043
 293  722.4095
 294  646.5336
 295  654.118
 296  690.8122
 297  700.5394
 298  729.0247
 299  715.2917
 300  741.1497
 301  741.9297
 302  626.8651
 303  596.3116
 304  620.2145
 305  699.3207
 306  635.4006
 307  624.7681
 308  595.7902
 309  525.7654
 310  523.7979
 311  641.7991
 312  781.4019
 313  653.4998
 314  516.5383
 315  577.1565
 316  641.9304
 317  610.3245
 318  625.2325
 319  649.5757
 320  667.3673
 321  651.1583
 322  682.6506
 323  626.3373
 324  636.283
 325  600.9978
 326  559.0839
 327  634.0498
 328  670.3458
 329  563.7308
 330  576.0505
 331  636.2668
 332  616.0057
 333  505.6624
 334  499.3962
 335  515.8516
 336  506.0723
 337  334.8606
 338  368.6987
 339  479.0737
 340  504.6909
 341  452.8595
 342  447.7343
 343  407.1381
 344  440.1217
 345  387.3553
 346  469.3534
 347  535.2303
 348  430.1454
 349  448.418
 350  427.9998
 351  535.7669
 352  536.1328
 353  605.143
 354  548.5065
 355  619.4577
 356  688.2527
 357  637.7136
 358  620.2166
 359  551.514
 360  613.3135
 361  600.1996
 362  532.3148
 363  580.0234
 364  662.011
 365  624.7656
 366  569.7155
 367  651.4301
 368  699.9347
 369  644.8444
 370  576.5617
 371  536.8072
 372  599.9731
 373  628.4089
 374  569.5557
 375  497.1838
 376  529.055
 377  544.7655
 378  541.5546
 379  578.6023
 380  493.4482
 381  531.5107
 382  514.8356
 383  509.4375
 384  525.3596
 385  506.7739
 386  474.466
 387  551.1698
 388  602.0954
 389  531.6481
 390  520.7821
 391  573.6047
 392  555.0838
 393  546.7003
 394  528.452
 395  492.4678
 396  477.3077
 397  400.5387
 398  538.5529
 399  585.7105
 400  598.7941
 401  593.6857
 402  502.7082
 403  449.6204
 404  531.6597
 405  600.9464
 406  547.5757
 407  478.5349
 408  463.4897
 409  502.014
 410  536.7061
 411  511.8344
 412  405.2104
 413  444.6951
 414  456.5487
 415  425.2658
 416  506.0735
 417  428.3507
 418  424.5457
 419  451.7504
 420  457.2347
 421  511.1126
 422  461.5724
 423  454.9675
 424  516.2875
 425  558.7901
 426  579.1252
 427  587.2067
 428  483.7024
 429  399.8455
 430  401.7599
 431  466.8414
 432  602.8187
 433  575.9468
 434  620.1685
 435  644.5316
 436  521.3597
 437  448.528
 438  523.4865
 439  550.9411
 440  572.3484
 441  607.9365
 442  563.4389
 443  596.5792
 444  492.3284
 445  582.144
 446  603.6495
 447  557.1391
 448  543.3263
 449  512.049
 450  666.8377
 451  629.3065
 452  575.6407
 453  637.7936
 454  664.7999
 455  682.866
 456  552.5142
 457  518.4205
 458  540.7302
 459  560.7568
 460  550.3269
 461  566.3089
 462  597.4517
 463  671.815
 464  667.5339
 465  643.3932
 466  592.4742
 467  680.6764
 468  681.8325
 469  558.4833
 470  507.9862
 471  572.6534
 472  639.9745
 473  570.6234
 474  581.662
 475  607.9575
 476  489.5723
 477  489.403
 478  390.0746
 479  530.2404
 480  592.3214
 481  529.3614
 482  493.5102
 483  594.8416
 484  519.5709
 485  497.9399
 486  468.799
 487  497.473
 488  470.813
 489  462.1579
 490  499.7194
 491  504.2878
 492  455.691
 493  521.95
 494  508.3751
 495  551.1445
 496  606.1645
 497  522.1329
 498  516.9925
 499  566.9889
 500  524.055
 501  576.0199
 502  709.4824
 503  761.8804
 504  870.6664
 505  839.7823
 506  771.2142
 507  865.234
 508  906.9587
 509  1089.613
 510  1171.113
 511  1363.969
