# Input file       =  1208786440.114979_cleaned.dat
# Candidate        =  PSR_0332+5434
# Telescope        =  AR
# Epoch_topo       =  58234.584017534478
# Epoch_bary       =  N/A
# T_sample         =  0.002
# Data Folded      =  7340032
# Data Avg         =  0.0391816862595282
# Data StdDev      =  1.0000784848899  
# Profile Bins     =  512
# Profile Avg      =  561.741843357413 
# Profile StdDev   =  119.742433610943 
# Reduced chi-sqr  =  1.482
# Prob(Noise)      <  7.75e-12   (~6.7 sigma)
# P_topo (ms)      =  714.550979211369  +/- 0.000249
# P'_topo (s/s)    =  -0                +/- 1.31e-10
# P''_topo (s/s^2) =  0                 +/- 5.79e-14
# P_bary (ms)      =  N/A
# P'_bary (s/s)    =  N/A
# P''_bary (s/s^2) =  N/A
# P_orb (s)        =  N/A
# asin(i)/c (s)    =  N/A
# eccentricity     =  N/A
# w (rad)          =  N/A
# T_peri           =  N/A
######################################################
   0  1270.422
   1  1239.136
   2  999.4908
   3  725.9203
   4  621.1343
   5  496.9406
   6  500.191
   7  611.0965
   8  495.7286
   9  350.6941
  10  524.9932
  11  546.1256
  12  614.9354
  13  676.9673
  14  608.8286
  15  560.8358
  16  599.2989
  17  550.7997
  18  543.8738
  19  587.238
  20  474.4222
  21  432.5242
  22  491.2286
  23  569.4372
  24  607.8248
  25  594.271
  26  550.9727
  27  484.2172
  28  526.61
  29  524.5959
  30  632.3997
  31  641.7627
  32  661.0326
  33  553.0009
  34  611.5308
  35  569.9248
  36  551.9564
  37  648.683
  38  592.3834
  39  594.3339
  40  676.5771
  41  741.5267
  42  690.4313
  43  604.8445
  44  560.5859
  45  544.7463
  46  591.1334
  47  590.5565
  48  709.3313
  49  603.8639
  50  547.9551
  51  497.6391
  52  484.6508
  53  599.3298
  54  619.4269
  55  530.127
  56  587.2433
  57  631.9409
  58  653.0767
  59  528.6728
  60  461.7458
  61  544.9198
  62  577.2389
  63  605.9008
  64  570.1997
  65  462.0264
  66  518.2348
  67  548.6988
  68  605.2643
  69  612.2332
  70  654.5845
  71  554.6143
  72  485.5963
  73  576.8561
  74  667.8382
  75  589.1366
  76  659.3563
  77  751.8404
  78  626.2219
  79  726.2845
  80  609.0807
  81  554.1212
  82  550.7818
  83  556.546
  84  551.537
  85  548.9291
  86  477.5853
  87  510.1826
  88  521.8277
  89  592.8757
  90  560.7488
  91  583.6311
  92  712.137
  93  620.9968
  94  583.0555
  95  692.2811
  96  607.7846
  97  559.0033
  98  619.7809
  99  615.6442
 100  599.8042
 101  576.9648
 102  554.6851
 103  475.9682
 104  566.7126
 105  575.2805
 106  448.8662
 107  490.9672
 108  610.5549
 109  442.4004
 110  625.6237
 111  691.5329
 112  552.1953
 113  573.1772
 114  716.183
 115  697.7098
 116  571.0946
 117  553.6916
 118  552.0009
 119  555.3372
 120  574.0485
 121  571.8522
 122  577.1146
 123  537.1022
 124  455.2507
 125  473.1273
 126  411.3928
 127  552.0864
 128  575.6779
 129  537.9307
 130  561.5129
 131  599.3115
 132  611.0581
 133  472.9296
 134  437.2669
 135  483.109
 136  560.1575
 137  566.9368
 138  452.9482
 139  487.7588
 140  468.5214
 141  525.9258
 142  446.2565
 143  486.2837
 144  544.7416
 145  547.4609
 146  502.4738
 147  546.9988
 148  614.1774
 149  561.7695
 150  583.3544
 151  514.3436
 152  501.3296
 153  608.1305
 154  537.4183
 155  376.4267
 156  445.1146
 157  657.1651
 158  655.7421
 159  567.3816
 160  510.6157
 161  656.0667
 162  650.6434
 163  515.1058
 164  558.4973
 165  679.7313
 166  659.8019
 167  594.6876
 168  535.7675
 169  564.41
 170  561.2351
 171  586.5102
 172  489.6212
 173  494.1891
 174  568.7208
 175  617.9379
 176  599.9571
 177  579.3542
 178  583.7415
 179  529.4789
 180  482.3975
 181  443.4461
 182  433.5349
 183  445.7691
 184  408.0073
 185  394.0094
 186  493.1127
 187  544.6354
 188  565.7041
 189  590.3499
 190  587.4186
 191  616.1594
 192  574.1895
 193  494.0086
 194  555.2308
 195  680.5822
 196  590.6205
 197  586.4897
 198  536.6719
 199  484.3202
 200  561.17
 201  548.0065
 202  646.4401
 203  605.5658
 204  570.2042
 205  736.6857
 206  580.7239
 207  603.4031
 208  523.7426
 209  507.2287
 210  510.9557
 211  490.9076
 212  488.211
 213  677.3203
 214  601.3839
 215  525.4095
 216  521.2116
 217  567.0681
 218  684.7285
 219  742.4033
 220  617.8846
 221  677.8392
 222  569.5519
 223  448.6434
 224  583.7641
 225  585.884
 226  479.692
 227  488.2188
 228  583.0493
 229  634.452
 230  586.2496
 231  569.9987
 232  625.3883
 233  609.7001
 234  593.723
 235  674.2275
 236  759.845
 237  707.9832
 238  670.4306
 239  745.4836
 240  741.2385
 241  658.8464
 242  624.8933
 243  578.6514
 244  565.0563
 245  532.9101
 246  653.033
 247  637.3323
 248  677.8972
 249  657.5965
 250  674.5828
 251  585.7537
 252  680.7722
 253  624.994
 254  661.5565
 255  673.593
 256  595.2222
 257  502.2373
 258  529.6741
 259  609.3954
 260  456.6263
 261  424.6607
 262  558.7984
 263  582.5486
 264  543.446
 265  509.6439
 266  634.3471
 267  596.7657
 268  607.1683
 269  603.4532
 270  677.4815
 271  511.928
 272  583.7606
 273  600.6474
 274  491.684
 275  489.736
 276  547.7332
 277  580.4639
 278  468.6775
 279  346.4878
 280  462.804
 281  451.8656
 282  399.434
 283  514.6476
 284  531.7968
 285  524.5431
 286  498.4859
 287  461.446
 288  492.8163
 289  499.7195
 290  498.1661
 291  487.1098
 292  649.2975
 293  557.2888
 294  535.2787
 295  571.1835
 296  572.0031
 297  490.2505
 298  477.4661
 299  561.3958
 300  517.8377
 301  538.4586
 302  480.5417
 303  496.3903
 304  550.016
 305  619.8424
 306  716.0698
 307  651.8863
 308  632.9893
 309  660.8433
 310  620.5738
 311  548.6308
 312  504.8272
 313  467.6078
 314  494.5682
 315  511.2888
 316  564.102
 317  457.0714
 318  479.8186
 319  611.8438
 320  671.3558
 321  641.7795
 322  577.0833
 323  530.6339
 324  431.3968
 325  519.5167
 326  524.6322
 327  554.3333
 328  420.0236
 329  437.4046
 330  535.7707
 331  538.8584
 332  495.8492
 333  464.5712
 334  525.2733
 335  500.7304
 336  434.3459
 337  412.9692
 338  347.3221
 339  392.1381
 340  501.8011
 341  611.4187
 342  544.9994
 343  530.6949
 344  483.5176
 345  429.4267
 346  386.8979
 347  410.4161
 348  494.8629
 349  469.9695
 350  516.4681
 351  592.5448
 352  527.5475
 353  572.6444
 354  594.764
 355  522.1069
 356  497.2531
 357  457.8528
 358  460.4322
 359  503.77
 360  488.2722
 361  412.3333
 362  426.0262
 363  526.4645
 364  469.693
 365  452.0454
 366  453.696
 367  531.9402
 368  341.9924
 369  373.4164
 370  430.4319
 371  435.675
 372  280.5383
 373  364.6444
 374  487.977
 375  477.3367
 376  419.5829
 377  275.1305
 378  441.0566
 379  504.9721
 380  359.8708
 381  516.3699
 382  411.3684
 383  378.6347
 384  485.6435
 385  591.973
 386  524.5152
 387  552.787
 388  579.917
 389  517.4664
 390  555.1374
 391  532.8124
 392  490.1305
 393  517.327
 394  576.9326
 395  543.8785
 396  598.0517
 397  579.082
 398  546.4897
 399  486.8083
 400  325.5471
 401  368.9282
 402  431.3634
 403  480.7585
 404  276.0015
 405  441.4319
 406  656.1776
 407  485.4434
 408  411.5837
 409  465.3882
 410  493.392
 411  487.2042
 412  489.2134
 413  615.8852
 414  473.7548
 415  500.7909
 416  571.8419
 417  554.6945
 418  475.6573
 419  517.2107
 420  551.9421
 421  531.7853
 422  484.7667
 423  463.8815
 424  488.6973
 425  573.6057
 426  489.9604
 427  418.4902
 428  444.2663
 429  436.0782
 430  537.7189
 431  540.1661
 432  550.3651
 433  511.9503
 434  554.3046
 435  491.6774
 436  503.5331
 437  524.7771
 438  602.4138
 439  568.8925
 440  549.6155
 441  504.5302
 442  485.6396
 443  538.8199
 444  567.791
 445  612.1727
 446  590.9669
 447  597.3586
 448  558.0417
 449  535.4225
 450  530.1826
 451  607.2214
 452  645.2569
 453  629.8693
 454  670.4214
 455  747.1383
 456  655.4166
 457  587.0312
 458  590.9938
 459  662.7465
 460  551.8058
 461  595.758
 462  716.7397
 463  708.0319
 464  627.181
 465  653.3241
 466  692.8973
 467  743.4269
 468  645.3737
 469  528.3218
 470  556.1594
 471  808.226
 472  765.4708
 473  589.6045
 474  542.2402
 475  559.4462
 476  597.266
 477  651.7327
 478  644.5467
 479  578.381
 480  628.3131
 481  648.1147
 482  632.0314
 483  569.4697
 484  552.345
 485  514.9205
 486  602.6067
 487  545.9985
 488  481.8802
 489  579.3339
 490  636.2233
 491  655.0366
 492  608.8208
 493  544.7806
 494  496.2171
 495  667.3837
 496  689.4938
 497  633.7642
 498  713.5801
 499  682.1921
 500  518.0739
 501  491.0581
 502  558.7466
 503  654.0209
 504  587.1282
 505  640.5131
 506  684.8389
 507  719.4012
 508  925.7479
 509  1004.658
 510  1061.058
 511  1196.07
