# Input file       =  1208082048.119238_cleaned.dat
# Candidate        =  PSR_0332+5434
# Telescope        =  AR
# Epoch_topo       =  58226.431332398584
# Epoch_bary       =  N/A
# T_sample         =  0.002
# Data Folded      =  7340032
# Data Avg         =  0.0424470206516009
# Data StdDev      =  0.999855107701768
# Profile Bins     =  512
# Profile Avg      =  608.556917621732 
# Profile StdDev   =  119.715687981951 
# Reduced chi-sqr  =  1.581
# Prob(Noise)      <  1e-15   (~7.9 sigma)
# P_topo (ms)      =  714.557475931464  +/- 0.00027
# P'_topo (s/s)    =  -0                +/- 1.43e-10
# P''_topo (s/s^2) =  0                 +/- 6.29e-14
# P_bary (ms)      =  N/A
# P'_bary (s/s)    =  N/A
# P''_bary (s/s^2) =  N/A
# P_orb (s)        =  N/A
# asin(i)/c (s)    =  N/A
# eccentricity     =  N/A
# w (rad)          =  N/A
# T_peri           =  N/A
######################################################
   0  740.1166
   1  681.993
   2  535.2364
   3  634.7393
   4  767.767
   5  670.5207
   6  691.9132
   7  740.3704
   8  660.3632
   9  553.5358
  10  480.7951
  11  568.4378
  12  586.3799
  13  547.3766
  14  584.8355
  15  572.1899
  16  567.7365
  17  493.9265
  18  480.9568
  19  581.14
  20  627.9316
  21  480.4328
  22  418.9187
  23  484.2418
  24  552.6462
  25  526.4874
  26  485.5102
  27  522.5952
  28  602.2652
  29  538.4988
  30  460.1181
  31  427.5947
  32  442.2857
  33  522.4274
  34  622.2776
  35  652.7216
  36  679.4253
  37  706.1364
  38  647.3554
  39  641.1916
  40  664.1583
  41  602.6082
  42  706.6017
  43  685.7412
  44  684.9617
  45  664.3937
  46  615.5211
  47  665.2744
  48  732.7776
  49  669.7112
  50  704.731
  51  681.2922
  52  652.6287
  53  676.8248
  54  672.2702
  55  657.3553
  56  563.844
  57  662.0413
  58  685.6819
  59  639.495
  60  596.6173
  61  538.1652
  62  542.7627
  63  569.8892
  64  547.7559
  65  591.0986
  66  595.407
  67  592.0994
  68  572.8535
  69  565.9775
  70  563.559
  71  531.5668
  72  612.1339
  73  569.3668
  74  518.4565
  75  610.9068
  76  663.6663
  77  654.3354
  78  586.1215
  79  509.7797
  80  516.9648
  81  564.3422
  82  521.5469
  83  626.5326
  84  678.6948
  85  556.4915
  86  477.1658
  87  442.8095
  88  504.8005
  89  473.6522
  90  490.7751
  91  584.593
  92  493.8528
  93  539.011
  94  567.6297
  95  549.6092
  96  476.8808
  97  535.9467
  98  603.8104
  99  553.501
 100  520.4169
 101  528.3005
 102  575.3039
 103  664.5231
 104  556.2542
 105  617.1128
 106  604.9385
 107  590.6932
 108  621.673
 109  620.2488
 110  626.7595
 111  667.5118
 112  682.4941
 113  615.9856
 114  658.0419
 115  707.8204
 116  692.7025
 117  638.3387
 118  636.3655
 119  608.4988
 120  535.2842
 121  593.8062
 122  582.795
 123  628.2665
 124  639.7954
 125  607.0139
 126  661.7813
 127  619.7151
 128  472.0961
 129  458.8356
 130  514.5145
 131  537.3192
 132  562.7817
 133  671.1662
 134  563.0543
 135  521.3389
 136  551.007
 137  617.849
 138  537.2745
 139  527.3224
 140  544.9187
 141  534.6671
 142  462.779
 143  480.7297
 144  469.8186
 145  510.2562
 146  400.7059
 147  458.4275
 148  521.7462
 149  413.2733
 150  359.5075
 151  378.9627
 152  389.1649
 153  492.7368
 154  496.7343
 155  463.4047
 156  379.6536
 157  377.1796
 158  375.0728
 159  455.7562
 160  393.1189
 161  382.3484
 162  369.6242
 163  415.5326
 164  366.6599
 165  292.8237
 166  332.8817
 167  455.6079
 168  464.6585
 169  509.2321
 170  484.8811
 171  501.6735
 172  551.1969
 173  497.2417
 174  429.5892
 175  460.9977
 176  481.1447
 177  428.2781
 178  443.8129
 179  563.3472
 180  592.3073
 181  597.1984
 182  531.301
 183  603.888
 184  597.9859
 185  590.387
 186  630.5208
 187  630.5006
 188  660.5965
 189  591.6478
 190  602.4365
 191  570.8504
 192  594.1924
 193  586.0798
 194  619.5587
 195  626.4473
 196  661.0128
 197  687.368
 198  686.5163
 199  645.0059
 200  736.7813
 201  769.9919
 202  779.546
 203  765.2037
 204  815.3495
 205  803.8159
 206  984.5749
 207  1132.773
 208  1220.528
 209  1100.156
 210  899.318
 211  775.3112
 212  753.9666
 213  698.9754
 214  649.5432
 215  597.4513
 216  633.8772
 217  598.2032
 218  634.415
 219  708.4456
 220  614.6922
 221  643.3232
 222  623.0824
 223  633.7385
 224  587.2602
 225  585.5684
 226  604.7543
 227  465.173
 228  491.1429
 229  517.7468
 230  509.2845
 231  471.6295
 232  407.6157
 233  421.3793
 234  469.7048
 235  417.9316
 236  424.2181
 237  308.6123
 238  386.6166
 239  379.8281
 240  452.5432
 241  512.1874
 242  336.3012
 243  347.2112
 244  422.6253
 245  418.8478
 246  452.0459
 247  526.4752
 248  537.749
 249  544.1586
 250  540.7988
 251  565.0355
 252  568.6514
 253  457.2592
 254  529.2344
 255  602.8417
 256  613.5557
 257  586.6014
 258  557.1491
 259  645.1303
 260  794.1116
 261  760.2643
 262  676.5447
 263  673.3591
 264  698.8663
 265  674.7761
 266  608.5215
 267  714.3979
 268  744.2885
 269  751.7899
 270  791.934
 271  777.4671
 272  747.8821
 273  649.0253
 274  725.1228
 275  820.1671
 276  769.9604
 277  741.0506
 278  699.8664
 279  552.4901
 280  631.1004
 281  600.796
 282  650.4026
 283  658.071
 284  589.759
 285  618.3464
 286  488.0361
 287  512.155
 288  547.4664
 289  644.6251
 290  664.1503
 291  611.1666
 292  623.9721
 293  646.7657
 294  605.7903
 295  565.8762
 296  647.0215
 297  606.1516
 298  622.6341
 299  599.4143
 300  583.4314
 301  561.0088
 302  570.9407
 303  514.0877
 304  501.3292
 305  537.8928
 306  536.0814
 307  642.0059
 308  645.2297
 309  665.3658
 310  609.2473
 311  601.9866
 312  608.4985
 313  520.8704
 314  566.2704
 315  538.9015
 316  577.499
 317  597.2365
 318  514.7463
 319  400.0009
 320  454.4805
 321  572.5424
 322  583.2076
 323  520.723
 324  537.4954
 325  641.6226
 326  590.7328
 327  607.1561
 328  582.7989
 329  588.8072
 330  581.4667
 331  627.1708
 332  632.1635
 333  629.3516
 334  603.1188
 335  627.8743
 336  668.335
 337  589.342
 338  696.0309
 339  692.4262
 340  682.3807
 341  667.6129
 342  615.8215
 343  645.1526
 344  698.3869
 345  656.2481
 346  638.8588
 347  666.9537
 348  633.0189
 349  611.312
 350  613.2775
 351  644.9638
 352  545.6292
 353  567.1935
 354  664.0431
 355  670.7621
 356  649.6827
 357  573.8974
 358  573.0844
 359  542.3441
 360  572.3518
 361  569.0435
 362  549.7244
 363  606.3961
 364  649.4568
 365  526.5663
 366  613.6735
 367  623.1906
 368  650.0358
 369  592.3044
 370  576.8905
 371  628.7554
 372  636.2001
 373  556.7714
 374  487.4105
 375  511.4948
 376  633.577
 377  566.9183
 378  602.5651
 379  628.1677
 380  533.1903
 381  516.921
 382  616.134
 383  594.3034
 384  582.0742
 385  570.8962
 386  555.2849
 387  578.4648
 388  618.0942
 389  585.6104
 390  627.1456
 391  598.2783
 392  591.8879
 393  641.046
 394  664.8014
 395  654.1824
 396  717.7245
 397  709.3914
 398  620.7319
 399  628.9301
 400  637.2697
 401  712.5153
 402  681.0529
 403  724.8309
 404  751.2186
 405  677.178
 406  689.3914
 407  755.9304
 408  768.9949
 409  765.2741
 410  806.7727
 411  747.1193
 412  757.0256
 413  786.2521
 414  766.3983
 415  631.6227
 416  639.3267
 417  733.3737
 418  691.5081
 419  651.379
 420  663.7493
 421  636.6171
 422  608.8447
 423  690.5759
 424  676.0926
 425  720.8146
 426  730.4788
 427  699.0894
 428  656.6461
 429  705.7947
 430  720.35
 431  651.0928
 432  575.8444
 433  614.5175
 434  643.0164
 435  656.5923
 436  648.1418
 437  652.8652
 438  702.6439
 439  662.5135
 440  609.3912
 441  614.8762
 442  641.6714
 443  655.8217
 444  629.7852
 445  612.2382
 446  676.0029
 447  601.4717
 448  598.8602
 449  585.9505
 450  592.3525
 451  539.4445
 452  523.7252
 453  470.037
 454  585.3307
 455  605.2209
 456  624.013
 457  589.8215
 458  567.3701
 459  561.459
 460  638.5604
 461  684.7182
 462  702.0778
 463  672.4463
 464  637.8341
 465  612.6979
 466  547.6069
 467  592.3672
 468  583.2267
 469  579.1792
 470  599.2573
 471  641.7123
 472  676.5195
 473  712.6813
 474  718.6469
 475  695.2141
 476  707.8615
 477  637.9644
 478  689.9156
 479  828.9882
 480  750.1318
 481  818.7006
 482  822.1859
 483  831.071
 484  855.2893
 485  807.0562
 486  837.0776
 487  777.4328
 488  817.1462
 489  759.3247
 490  791.2764
 491  737.4625
 492  736.5139
 493  674.5399
 494  731.5216
 495  860.8464
 496  780.5721
 497  706.6332
 498  756.5347
 499  659.5456
 500  613.0432
 501  606.5921
 502  681.2433
 503  738.8322
 504  680.6561
 505  669.8355
 506  661.1414
 507  638.881
 508  698.4295
 509  608.7933
 510  663.428
 511  770.7805
