# Input file       =  1208498346.111598_cleaned.dat
# Candidate        =  PSR_0332+5434
# Telescope        =  AR
# Epoch_topo       =  58231.249596199050
# Epoch_bary       =  N/A
# T_sample         =  0.002
# Data Folded      =  7208960
# Data Avg         =  0.268377500793642
# Data StdDev      =  6.21577315261835 
# Profile Bins     =  1024
# Profile Avg      =  1889.40453501679 
# Profile StdDev   =  521.532630454768 
# Reduced chi-sqr  =  1.135
# Prob(Noise)      <  0.00165   (~2.9 sigma)
# P_topo (ms)      =  714.553473920977  +/- 6.67e-05
# P'_topo (s/s)    =  -0                +/- 3.58e-11
# P''_topo (s/s^2) =  0                 +/- 1.61e-14
# P_bary (ms)      =  N/A
# P'_bary (s/s)    =  N/A
# P''_bary (s/s^2) =  N/A
# P_orb (s)        =  N/A
# asin(i)/c (s)    =  N/A
# eccentricity     =  N/A
# w (rad)          =  N/A
# T_peri           =  N/A
######################################################
   0  2011.53
   1  1991.55
   2  2114.674
   3  2078.506
   4  2125.676
   5  2083.213
   6  2083.49
   7  2191.511
   8  1987.108
   9  1897.937
  10  1831.411
  11  1788.959
  12  1859.639
  13  2109.256
  14  2358.189
  15  2256.339
  16  2237.976
  17  2102.7
  18  1969.905
  19  1790.387
  20  1663.558
  21  1613.464
  22  1547.802
  23  1512.007
  24  1422.76
  25  1382.362
  26  1372.777
  27  1329.963
  28  1266.944
  29  1757.654
  30  2129.44
  31  2146.777
  32  2183.188
  33  2343.056
  34  2449.757
  35  2259.674
  36  2239.448
  37  2342.302
  38  2270.7
  39  2194.798
  40  2063.312
  41  1602.856
  42  1346.229
  43  1466.09
  44  1446.796
  45  1540.445
  46  1653.944
  47  2045.71
  48  2166.675
  49  2151.787
  50  2299.72
  51  2122.04
  52  2030.843
  53  1932.892
  54  1809.859
  55  1656.746
  56  1223.269
  57  1188.471
  58  1256.588
  59  1110.842
  60  1075.166
  61  1178.448
  62  1588.698
  63  1752.724
  64  1813.262
  65  2152.495
  66  2271.542
  67  2316.835
  68  2223.118
  69  2301.177
  70  2331.559
  71  2069.269
  72  1954.726
  73  1804.104
  74  1712.203
  75  1772.601
  76  1675.682
  77  1839.858
  78  1781.034
  79  1867.893
  80  1834.526
  81  1822.736
  82  1998.598
  83  1820.198
  84  1669.819
  85  1632.786
  86  1550.454
  87  1626.444
  88  1631.909
  89  1480.672
  90  1438.298
  91  1201.048
  92  1156.286
  93  1086.118
  94  1399.151
  95  1720.622
  96  1502.504
  97  1748.062
  98  1784.617
  99  1851.926
 100  2041.545
 101  2342.43
 102  2635.183
 103  2368.358
 104  2162.338
 105  2073.474
 106  1599.279
 107  1623.859
 108  1515.803
 109  1611.711
 110  1488.429
 111  1614.348
 112  1988.559
 113  1710.76
 114  1591.102
 115  1626.818
 116  1861.189
 117  1837.79
 118  1692.672
 119  1560.041
 120  1509.628
 121  1479.15
 122  1788.222
 123  1821.016
 124  1542.783
 125  1508.921
 126  1802.603
 127  2132.658
 128  2013.287
 129  1920.134
 130  2018.927
 131  1833.719
 132  1778.312
 133  1690.381
 134  1668.023
 135  1704.747
 136  2020.652
 137  2274.873
 138  2178.917
 139  1929.381
 140  1942.883
 141  2035.477
 142  1909.537
 143  2007.043
 144  1941.832
 145  2047.719
 146  1962.785
 147  1979.14
 148  1869.974
 149  1688.123
 150  1778.881
 151  1705.766
 152  1498.502
 153  1441.616
 154  1561.585
 155  1801.688
 156  1729.313
 157  1683.567
 158  1669.428
 159  1782.407
 160  1919.445
 161  1809.804
 162  1911.681
 163  1924.807
 164  1925.474
 165  1943.666
 166  1987.197
 167  1986.897
 168  2026.067
 169  2137.587
 170  2316.855
 171  2033.088
 172  1978.438
 173  1981.611
 174  1846.29
 175  1893.123
 176  1849.679
 177  2091.589
 178  1959.19
 179  1802.783
 180  2031.438
 181  1940.822
 182  1884.064
 183  1754.276
 184  1696.811
 185  1879.061
 186  1858.973
 187  1960.255
 188  1945.876
 189  1544.345
 190  1332.921
 191  1345.994
 192  1423.629
 193  1496.5
 194  1492.295
 195  2040.031
 196  1889.702
 197  1731.979
 198  1644.55
 199  1765.037
 200  1941.83
 201  2050.124
 202  2343.708
 203  2168.743
 204  1933.973
 205  1922.562
 206  1817.421
 207  1676.583
 208  1666.572
 209  1850.12
 210  1897.842
 211  1821.308
 212  1956.779
 213  2014.906
 214  1981.88
 215  1962.629
 216  2152.018
 217  2111.471
 218  2076.938
 219  1944.505
 220  1857.674
 221  1666.841
 222  1449.223
 223  1450.129
 224  1334.933
 225  1290.991
 226  1157.668
 227  1462.305
 228  1635.209
 229  1670.878
 230  1772.578
 231  1938.881
 232  2053.503
 233  2149.995
 234  2432.083
 235  2555.692
 236  2323.249
 237  2148.756
 238  2012.03
 239  1639.864
 240  1493.251
 241  1617.24
 242  1666.763
 243  1679.889
 244  1694.321
 245  1884.877
 246  1908.851
 247  1850.582
 248  1757.563
 249  1523.835
 250  1689.66
 251  1821.172
 252  1886.399
 253  1864.794
 254  1730.29
 255  1594.633
 256  1521.968
 257  1464.258
 258  1496.412
 259  1537.045
 260  1756.339
 261  1984.968
 262  1929.161
 263  1970.848
 264  1881.638
 265  1960.953
 266  1923.842
 267  2004.626
 268  2328.019
 269  2418.863
 270  2428.37
 271  2312.845
 272  2092.266
 273  1909.954
 274  1620.308
 275  1783.741
 276  1810.129
 277  1905.434
 278  2049.038
 279  2073.203
 280  1993.496
 281  1867.385
 282  1838.88
 283  1961.882
 284  1928.692
 285  2066.023
 286  2003.116
 287  1699.776
 288  1389.192
 289  1341.328
 290  1208.522
 291  1268.933
 292  1420.021
 293  1918.474
 294  1804.068
 295  1767.684
 296  1935.819
 297  2023.59
 298  2081.788
 299  2045.297
 300  2056.246
 301  2020.828
 302  1989.436
 303  2155.284
 304  1925.651
 305  1708.03
 306  1723.541
 307  1953.348
 308  2037.349
 309  2027.768
 310  2099.878
 311  2271.806
 312  2217.165
 313  2210.022
 314  1963.114
 315  1733.485
 316  1731.31
 317  1807.663
 318  1975.124
 319  1557.095
 320  1453.374
 321  1632.788
 322  1627.795
 323  1714.467
 324  1790.3
 325  2020.859
 326  1988.852
 327  1768.218
 328  2201.774
 329  2292.901
 330  2253.379
 331  2264.023
 332  2176.278
 333  2010.167
 334  1763.025
 335  2084.039
 336  2321.421
 337  2366.641
 338  2507.888
 339  2429.061
 340  2327.932
 341  2259.937
 342  2131.497
 343  2238.743
 344  2199.694
 345  2414.89
 346  2339.521
 347  1988.961
 348  1875.229
 349  1626.221
 350  1472.418
 351  1382.057
 352  1559.896
 353  1809.766
 354  1701.359
 355  1627.895
 356  1685.254
 357  1932.318
 358  2129.813
 359  2208.314
 360  2287.948
 361  2217.949
 362  1995.822
 363  2008.871
 364  2003.509
 365  2100.433
 366  2226.567
 367  2257.33
 368  2264.323
 369  2012.538
 370  2045.521
 371  2131.122
 372  2162.946
 373  1916.752
 374  1913.777
 375  1969.25
 376  2119.012
 377  2088.817
 378  1971.888
 379  1941.681
 380  1882.543
 381  1820.19
 382  1769.763
 383  1881.897
 384  1963.109
 385  1905.885
 386  1975.798
 387  1884.255
 388  1595.907
 389  1401.852
 390  1457.088
 391  1620.506
 392  1541.623
 393  1754.181
 394  1919.967
 395  1857.038
 396  2009.497
 397  2052.613
 398  2155.035
 399  2209.663
 400  2388.686
 401  2551.986
 402  2089.41
 403  2064.075
 404  2171.515
 405  2068.934
 406  1870.971
 407  1784.114
 408  1950.374
 409  1815.701
 410  1683.555
 411  1577.158
 412  1304.923
 413  1331.982
 414  1354.157
 415  1384.5
 416  1585.145
 417  1900.228
 418  2118.498
 419  2047.178
 420  1868.291
 421  1783.15
 422  1646.72
 423  1434.976
 424  1471.928
 425  1430.256
 426  1711.473
 427  1658.451
 428  1794.001
 429  1848.984
 430  1538.088
 431  1819.476
 432  2000.031
 433  2129.726
 434  2146.052
 435  2230.119
 436  2411.567
 437  2286.558
 438  2098.655
 439  2068.316
 440  1795.047
 441  1889.037
 442  1690.602
 443  1520.713
 444  1304.275
 445  1434.414
 446  1656.245
 447  1581.023
 448  1506.336
 449  1497.948
 450  1617.735
 451  1901.751
 452  1894.993
 453  1991.444
 454  1974.895
 455  1979.857
 456  1846.388
 457  1555.142
 458  1590.021
 459  1701.414
 460  1603.168
 461  1737.363
 462  1595.803
 463  1689.736
 464  1664.229
 465  1902.485
 466  2244.882
 467  2300.827
 468  2591.344
 469  2603.323
 470  2485.102
 471  2300.05
 472  1999.506
 473  1818.377
 474  1614.914
 475  1560.38
 476  1732.913
 477  1580.138
 478  1634.766
 479  1753.571
 480  1913.009
 481  1911.053
 482  1756.039
 483  1949.5
 484  2074.803
 485  1976.009
 486  1755.526
 487  1705.089
 488  1680.445
 489  1750.035
 490  1733.452
 491  1901.35
 492  1924.41
 493  1845.202
 494  1973.302
 495  1891.856
 496  1986.647
 497  2083.57
 498  2218.044
 499  2247.648
 500  2452.007
 501  2793.649
 502  2842.891
 503  2453.222
 504  2291.285
 505  2226.847
 506  2088.703
 507  2000.484
 508  1966.295
 509  2014.187
 510  1929.669
 511  1896.027
 512  1832.397
 513  1759.083
 514  2085.315
 515  2127.727
 516  2075.307
 517  1795.777
 518  1706.508
 519  1716.878
 520  1386.396
 521  1157.262
 522  1263.484
 523  1526.352
 524  1829.362
 525  1679.851
 526  1923.717
 527  2044.779
 528  2072.961
 529  2262.972
 530  2463.977
 531  2361.106
 532  2239.954
 533  2405.51
 534  2496.829
 535  2096.404
 536  1892.8
 537  1831.179
 538  1668.403
 539  1681.631
 540  1767.462
 541  1882.469
 542  1785.491
 543  1871.396
 544  2111.606
 545  2194.783
 546  2410.958
 547  2642.034
 548  2563.306
 549  2242.449
 550  1878.524
 551  1756.854
 552  1649.556
 553  1255.183
 554  1002.424
 555  1115.855
 556  1429.474
 557  1679.675
 558  1685.962
 559  1994.683
 560  2182.864
 561  2257.142
 562  2264.117
 563  2233.511
 564  2326.208
 565  2356.401
 566  2421.242
 567  2284.361
 568  1958.887
 569  1927.023
 570  1841.644
 571  1776.576
 572  1736.832
 573  1700.573
 574  1851.685
 575  1686.973
 576  1652.864
 577  1703.199
 578  1870.825
 579  1984.962
 580  1850.624
 581  1827.719
 582  1992.465
 583  2120.398
 584  2262.311
 585  2189.151
 586  2116.537
 587  2063.587
 588  1989.236
 589  1932.31
 590  1707.68
 591  1749.363
 592  1752.936
 593  1552.781
 594  1726.197
 595  2012.048
 596  2446.086
 597  2647.503
 598  2979.904
 599  3506.875
 600  3469.405
 601  3443.306
 602  3464.899
 603  3312.657
 604  2969.054
 605  2353.261
 606  2278.125
 607  2035.484
 608  1640.777
 609  1683.088
 610  1692.626
 611  2014.777
 612  1957.97
 613  2025.899
 614  1970.955
 615  2023.741
 616  2185.023
 617  2209.177
 618  1938.346
 619  1676.152
 620  1631.273
 621  1727.599
 622  1600.949
 623  1529.756
 624  1749.841
 625  1937.727
 626  1973.642
 627  2003.505
 628  2112.005
 629  1947.414
 630  2023.061
 631  2257.176
 632  2366.046
 633  2279.105
 634  2271.629
 635  2287.75
 636  2035.938
 637  1969.343
 638  1794.546
 639  1771.314
 640  1728.039
 641  1742.47
 642  1911.383
 643  1806.867
 644  1804.524
 645  1921.65
 646  1936.666
 647  2043.084
 648  1986.401
 649  1979.123
 650  1793.1
 651  1605.363
 652  1419.988
 653  1451.784
 654  1346.475
 655  1549.546
 656  1846.449
 657  2166.253
 658  2066.257
 659  1951.18
 660  1940.87
 661  1923.449
 662  1923.252
 663  2212.91
 664  2275.487
 665  2268.643
 666  2155.229
 667  2407.326
 668  2225.175
 669  2109.26
 670  2091.107
 671  2127.922
 672  2284.387
 673  2354.224
 674  2213.781
 675  1920.778
 676  1834.073
 677  2005.612
 678  1920.577
 679  1811.791
 680  1835.686
 681  1825.546
 682  1874.014
 683  1623.975
 684  1615.729
 685  1719.154
 686  1781.935
 687  1857.117
 688  1854.511
 689  2048.04
 690  2063.925
 691  1896.878
 692  2010.456
 693  1946.788
 694  1905.649
 695  1817.12
 696  1975.619
 697  2054.101
 698  1914.2
 699  2016.374
 700  2176.305
 701  2046.463
 702  1933.796
 703  1776.621
 704  1627.292
 705  1704.246
 706  1776.225
 707  2031.284
 708  1724.233
 709  1578.257
 710  1670.857
 711  1772.971
 712  1742.767
 713  1629.875
 714  1541.709
 715  1755.961
 716  1691.479
 717  1829.283
 718  1745.833
 719  1533.507
 720  1326.736
 721  1496.204
 722  1674.623
 723  1524.863
 724  1635.985
 725  1976.784
 726  1968.232
 727  1884.574
 728  1902.55
 729  2080.744
 730  1985.096
 731  2059.074
 732  2134.27
 733  1895.649
 734  1735.301
 735  1899.204
 736  1879.773
 737  1644.407
 738  1813.43
 739  1891.255
 740  1855.807
 741  1766.303
 742  1762.749
 743  1670.8
 744  1287.886
 745  1282.467
 746  1471.451
 747  1536.095
 748  1559.601
 749  1496.356
 750  1589.32
 751  1471.685
 752  1327.568
 753  1333.218
 754  1320.903
 755  1453.371
 756  1440.675
 757  1482.182
 758  1474.02
 759  1403.691
 760  1719.902
 761  1740.724
 762  1875.45
 763  1946.824
 764  2115.828
 765  2340.872
 766  1973.359
 767  1749.499
 768  1777.968
 769  1711.547
 770  1779.458
 771  1660.818
 772  1967.306
 773  1969.946
 774  1691.549
 775  1570.53
 776  1610.823
 777  1789.97
 778  1674.275
 779  1573.596
 780  1690.791
 781  1664.75
 782  1801.214
 783  1730.88
 784  1617.77
 785  1690.436
 786  1938.461
 787  2002.862
 788  1663.799
 789  1540.84
 790  1908.203
 791  1773.247
 792  1859.441
 793  2031.177
 794  2196.582
 795  2054.978
 796  2111.572
 797  2401.081
 798  2306.034
 799  1863.78
 800  2007.25
 801  1925.693
 802  1865.058
 803  1892.766
 804  2146.488
 805  2343.201
 806  2161.782
 807  2168.021
 808  2078.773
 809  1702.894
 810  1661.549
 811  1638.464
 812  1687.996
 813  1636.364
 814  1768.156
 815  1981.591
 816  1800.515
 817  1616.564
 818  1774.399
 819  1814.38
 820  1732.547
 821  1587.07
 822  1843.013
 823  1814.134
 824  1732.997
 825  1748.5
 826  1889.475
 827  1864.062
 828  1998.679
 829  2169.031
 830  2428.733
 831  2392.78
 832  2558.877
 833  2365.271
 834  2019.78
 835  1887.858
 836  1944.751
 837  1997.295
 838  1972.466
 839  1961.777
 840  2067.747
 841  1975.135
 842  2135.996
 843  2123.958
 844  2006.569
 845  1779.336
 846  1834.725
 847  1816.127
 848  1880.939
 849  1703.406
 850  1701.622
 851  1582.852
 852  1589.172
 853  1706.456
 854  1988.26
 855  2395.918
 856  2444.359
 857  2386.733
 858  2320.749
 859  2322.029
 860  2259.647
 861  2172.496
 862  2110.185
 863  2216.592
 864  2105.047
 865  2234.853
 866  2054.219
 867  1723.48
 868  1810.931
 869  1894.258
 870  1907.728
 871  1832.226
 872  1648.724
 873  1892.428
 874  1775.066
 875  1726.777
 876  1711.306
 877  1613.199
 878  1769.419
 879  1737.721
 880  1877.932
 881  1910.282
 882  1695.341
 883  1734.71
 884  1654.39
 885  1627.905
 886  1604.574
 887  1716.179
 888  2028.091
 889  1845.632
 890  2027.07
 891  2062.238
 892  1820.343
 893  1820.729
 894  1844.801
 895  2111.458
 896  2032.272
 897  1910.065
 898  1962.057
 899  1764.218
 900  1632.924
 901  1701.472
 902  1761.117
 903  1934.924
 904  1938.58
 905  2100.588
 906  1799.408
 907  1444.796
 908  1325.284
 909  1317.576
 910  1397.78
 911  1338.36
 912  1497.343
 913  1810.073
 914  1790.018
 915  1861.522
 916  1827.059
 917  1845.056
 918  1797.639
 919  1814.633
 920  2001.644
 921  1959.976
 922  1805.886
 923  1760.408
 924  1730.287
 925  1534.66
 926  1586.708
 927  1531.024
 928  1773.789
 929  1986.324
 930  2528.275
 931  2407.393
 932  2006.537
 933  1948.346
 934  1984.725
 935  2021.235
 936  1958.493
 937  1820.725
 938  1764.494
 939  1586.545
 940  1596.686
 941  1526.772
 942  1449.56
 943  1453.348
 944  1326.609
 945  1487.076
 946  1705.561
 947  1857.134
 948  2046.573
 949  2117.933
 950  1866.249
 951  1617.524
 952  1704.351
 953  1767.35
 954  1693.157
 955  1582.252
 956  1712.467
 957  1650.175
 958  1904.283
 959  2079.566
 960  2190.627
 961  2054.558
 962  2123.989
 963  2290.385
 964  2207.365
 965  2098.473
 966  2113.752
 967  1921.036
 968  1839.847
 969  1797.005
 970  2020.389
 971  2280.475
 972  2260.964
 973  2403.354
 974  2070.281
 975  1969.836
 976  2009.201
 977  2039.361
 978  2002.942
 979  1961.562
 980  2059.514
 981  2123.587
 982  1865.727
 983  1757.445
 984  1926.996
 985  2083.505
 986  2088.344
 987  2030.084
 988  2238.406
 989  2348.907
 990  2166.629
 991  2123.458
 992  1998.143
 993  2141.635
 994  2270.443
 995  2509.549
 996  2472.044
 997  2203.042
 998  2268.404
 999  2260.314
1000  2035.609
1001  1992.006
1002  2106.526
1003  2389.021
1004  2380.657
1005  1953.417
1006  1956.971
1007  1784.936
1008  1917.094
1009  1783.279
1010  1562.043
1011  1485.48
1012  1335.29
1013  1541.686
1014  1501.327
1015  1106.613
1016  1155.312
1017  1324.209
1018  1617.979
1019  1723.918
1020  1868.913
1021  2185.873
1022  2054.158
1023  2040.75
