# Input file       =  1208239734.114344_cleaned.dat
# Candidate        =  PSR_0332+5434
# Telescope        =  AR
# Epoch_topo       =  58228.256401786384
# Epoch_bary       =  N/A
# T_sample         =  0.002
# Data Folded      =  7208960
# Data Avg         =  0.0269484880515906
# Data StdDev      =  1.00136919207826 
# Profile Bins     =  512
# Profile Avg      =  379.41515700123  
# Profile StdDev   =  118.82164299704  
# Reduced chi-sqr  =  1.786
# Prob(Noise)      <  4.33e-25   (~10.3 sigma)
# P_topo (ms)      =  714.555970767322  +/- 0.000174
# P'_topo (s/s)    =  -0                +/- 9.37e-11
# P''_topo (s/s^2) =  0                 +/- 4.21e-14
# P_bary (ms)      =  N/A
# P'_bary (s/s)    =  N/A
# P''_bary (s/s^2) =  N/A
# P_orb (s)        =  N/A
# asin(i)/c (s)    =  N/A
# eccentricity     =  N/A
# w (rad)          =  N/A
# T_peri           =  N/A
######################################################
   0  1152.495
   1  1180.991
   2  896.4297
   3  557.6735
   4  410.3347
   5  351.1072
   6  521.7722
   7  515.4449
   8  577.7554
   9  587.2222
  10  628.0411
  11  575.28
  12  536.0717
  13  555.593
  14  502.6299
  15  556.0972
  16  557.0298
  17  421.88
  18  431.9157
  19  440.0193
  20  468.9628
  21  472.0564
  22  472.1999
  23  451.7428
  24  390.151
  25  373.9717
  26  491.8805
  27  500.0562
  28  461.0321
  29  464.1252
  30  380.4179
  31  426.3919
  32  545.2679
  33  522.5357
  34  358.6484
  35  392.5486
  36  474.1673
  37  539.0632
  38  419.3856
  39  464.6431
  40  411.1567
  41  380.5182
  42  372.6972
  43  413.0241
  44  440.4403
  45  437.5351
  46  418.1911
  47  586.5678
  48  506.4453
  49  412.4963
  50  433.275
  51  374.4681
  52  332.9469
  53  324.1384
  54  337.3544
  55  427.9862
  56  417.4484
  57  495.1729
  58  430.2979
  59  303.6399
  60  443.5979
  61  431.1147
  62  354.7426
  63  282.8797
  64  233.8565
  65  286.155
  66  392.2059
  67  234.4068
  68  268.262
  69  295.8326
  70  284.2793
  71  198.8932
  72  170.5556
  73  270.9838
  74  412.2559
  75  491.041
  76  446.7267
  77  346.5313
  78  362.4976
  79  356.2049
  80  252.2729
  81  351.2694
  82  379.3445
  83  301.7512
  84  320.3344
  85  290.948
  86  272.2556
  87  378.1689
  88  187.4836
  89  132.2471
  90  258.385
  91  358.2925
  92  409.9109
  93  337.4944
  94  351.26
  95  421.4881
  96  472.7523
  97  412.922
  98  228.7233
  99  235.301
 100  390.9597
 101  392.9301
 102  453.3739
 103  366.0491
 104  309.297
 105  346.0372
 106  440.6511
 107  398.5582
 108  278.165
 109  374.0933
 110  486.5389
 111  266.313
 112  296.8385
 113  299.1856
 114  299.7787
 115  326.8474
 116  346.5361
 117  459.023
 118  500.7498
 119  370.3848
 120  299.9363
 121  355.7657
 122  377.696
 123  360.1746
 124  371.6491
 125  402.4775
 126  448.5344
 127  464.4823
 128  555.6592
 129  521.8616
 130  478.4125
 131  359.4581
 132  255.2776
 133  310.6932
 134  327.5175
 135  378.5257
 136  327.1322
 137  362.504
 138  447.195
 139  416.8193
 140  335.4333
 141  390.8
 142  392.4051
 143  369.1657
 144  475.5463
 145  350.1701
 146  281.0173
 147  318.6497
 148  323.7035
 149  407.7605
 150  275.9885
 151  302.1066
 152  262.1222
 153  277.76
 154  366.2897
 155  293.4262
 156  377.8923
 157  483.5058
 158  415.4446
 159  231.4937
 160  209.1967
 161  329.2365
 162  401.675
 163  356.4919
 164  290.2603
 165  258.6605
 166  229.485
 167  360.4863
 168  384.3742
 169  314.8347
 170  352.5455
 171  395.1652
 172  231.1953
 173  308.1789
 174  452.7213
 175  364.4763
 176  364.6495
 177  275.5411
 178  203.2252
 179  356.105
 180  313.3712
 181  294.3997
 182  330.5919
 183  418.9644
 184  406.1428
 185  310.2823
 186  314.1504
 187  304.3117
 188  419.8684
 189  440.1984
 190  544.8643
 191  501.935
 192  514.8826
 193  506.3849
 194  375.2083
 195  341.1368
 196  323.0905
 197  434.5378
 198  482.5309
 199  399.3636
 200  312.0479
 201  260.5771
 202  293.8284
 203  304.894
 204  338.3597
 205  362.2204
 206  395.0587
 207  432.6431
 208  544.5291
 209  350.2531
 210  352.2842
 211  395.3184
 212  468.1494
 213  350.8857
 214  277.7471
 215  387.7702
 216  386.0563
 217  335.778
 218  303.5989
 219  269.3511
 220  402.788
 221  447.7943
 222  369.1822
 223  444.644
 224  360.7331
 225  250.0349
 226  412.9844
 227  405.0728
 228  401.6324
 229  352.1495
 230  289.136
 231  348.1243
 232  308.4735
 233  332.333
 234  411.3223
 235  348.9033
 236  277.442
 237  240.6678
 238  374.6664
 239  386.623
 240  319.63
 241  278.0807
 242  371.0597
 243  322.2731
 244  305.609
 245  315.8873
 246  294.3206
 247  361.3377
 248  206.446
 249  246.2698
 250  184.9076
 251  66.74119
 252  280.6833
 253  287.25
 254  223.7659
 255  337.8945
 256  321.9344
 257  382.5404
 258  438.3711
 259  362.0797
 260  316.5612
 261  327.3371
 262  442.3543
 263  271.5982
 264  318.7063
 265  458.2482
 266  458.7759
 267  501.3729
 268  410.6028
 269  402.2599
 270  460.5287
 271  606.9922
 272  406.662
 273  312.1346
 274  414.005
 275  503.8277
 276  543.5745
 277  482.7307
 278  453.3109
 279  502
 280  354.4518
 281  424.0195
 282  457.9133
 283  287.0504
 284  284.524
 285  331.2399
 286  257.9529
 287  295.8807
 288  371.4443
 289  417.1029
 290  458.0426
 291  382.7682
 292  276.5626
 293  331.7086
 294  370.7477
 295  399.1349
 296  278.9045
 297  389.4119
 298  439.7302
 299  343.8152
 300  309.6896
 301  288.8933
 302  322.0272
 303  273.9607
 304  386.1286
 305  330.9823
 306  386.8595
 307  457.5669
 308  457.2348
 309  459.9919
 310  517.3885
 311  497.1015
 312  469.0534
 313  351.696
 314  320.3436
 315  354.705
 316  338.8912
 317  311.8191
 318  431.0432
 319  384.5332
 320  491.9315
 321  295.1844
 322  338.0456
 323  469.2324
 324  357.8391
 325  391.9778
 326  409.506
 327  502.0974
 328  439.6041
 329  438.1908
 330  521.397
 331  523.313
 332  440.7873
 333  308.3961
 334  307.9573
 335  335.0115
 336  148.7235
 337  133.8033
 338  243.9817
 339  402.5826
 340  553.7345
 341  640.7228
 342  378.1325
 343  337.3652
 344  295.856
 345  352.18
 346  359.2564
 347  408.7364
 348  385.2007
 349  262.4633
 350  265.8349
 351  265.0255
 352  259.5509
 353  340.1129
 354  323.7221
 355  265.7347
 356  357.9367
 357  277.8164
 358  322.6709
 359  350.4588
 360  285.9541
 361  279.6494
 362  249.3605
 363  314.8502
 364  282.6364
 365  287.804
 366  338.1092
 367  195.8289
 368  225.4931
 369  308.7896
 370  218.2416
 371  349.4135
 372  319.5405
 373  312.1015
 374  322.903
 375  425.8495
 376  446.1276
 377  279.8927
 378  237.5396
 379  293.8102
 380  360.5981
 381  459.1461
 382  344.73
 383  292.286
 384  375.1744
 385  243.6661
 386  283.6641
 387  348.0691
 388  436.5031
 389  451.2122
 390  410.5079
 391  517.1367
 392  433.5873
 393  376.1624
 394  253.9412
 395  388.559
 396  453.5457
 397  411.0219
 398  334.4825
 399  203.6902
 400  213.2396
 401  178.8741
 402  171.8697
 403  338.6203
 404  342.4628
 405  387.7391
 406  468.893
 407  374.7544
 408  329.3918
 409  308.1549
 410  386.2034
 411  366.107
 412  360.0298
 413  449.506
 414  557.6993
 415  414.1147
 416  361.366
 417  268.101
 418  242.1827
 419  411.7798
 420  396.0677
 421  358.134
 422  361.5547
 423  459.1544
 424  417.9188
 425  354.094
 426  364.5971
 427  327.4279
 428  350.5345
 429  384.8839
 430  373.9331
 431  346.3893
 432  335.3608
 433  354.2776
 434  318.8368
 435  351.7157
 436  366.4869
 437  470.724
 438  350.891
 439  331.1047
 440  333.9594
 441  393.8472
 442  494.129
 443  350.0161
 444  392.6079
 445  261.7985
 446  262.7426
 447  298.6224
 448  360.0836
 449  322.5892
 450  226.9114
 451  277.4723
 452  322.8632
 453  409.0073
 454  439.2385
 455  373.9341
 456  363.1646
 457  327.1407
 458  408.6797
 459  419.0307
 460  395.8517
 461  226.1259
 462  455.007
 463  546.8674
 464  368.2032
 465  280.1947
 466  266.0047
 467  320.2102
 468  297.7017
 469  359.2155
 470  402.2742
 471  320.0317
 472  372.5365
 473  445.679
 474  312.5161
 475  422.5858
 476  264.8847
 477  448.9828
 478  540.9782
 479  376.9814
 480  345.5592
 481  356.1025
 482  257.5247
 483  385.018
 484  235.8608
 485  329.4482
 486  347.999
 487  289.7169
 488  398.0201
 489  415.7873
 490  314.4643
 491  342.933
 492  339.6795
 493  422.4002
 494  433.0668
 495  556.984
 496  575.1042
 497  497.8152
 498  337.9626
 499  353.9077
 500  377.5667
 501  423.294
 502  361.7615
 503  438.9354
 504  759.4339
 505  626.8719
 506  605.1246
 507  635.35
 508  707.0468
 509  861.7579
 510  904.4721
 511  1049.108
