# Input file       =  1208857737.106156_cleaned.dat
# Candidate        =  PSR_0332+5434
# Telescope        =  AR
# Epoch_topo       =  58235.409214191619
# Epoch_bary       =  N/A
# T_sample         =  0.002
# Data Folded      =  7340032
# Data Avg         =  0.29912357017955 
# Data StdDev      =  6.2453157175541  
# Profile Bins     =  256
# Profile Avg      =  8576.48616442664 
# Profile StdDev   =  1057.50734385479 
# Reduced chi-sqr  =  1.018
# Prob(Noise)      <  0.407   (~0.2 sigma)
# P_topo (ms)      =  714.549921409433  +/- 0.000414
# P'_topo (s/s)    =  -0                +/- 2.19e-10
# P''_topo (s/s^2) =  0                 +/- 9.65e-14
# P_bary (ms)      =  N/A
# P'_bary (s/s)    =  N/A
# P''_bary (s/s^2) =  N/A
# P_orb (s)        =  N/A
# asin(i)/c (s)    =  N/A
# eccentricity     =  N/A
# w (rad)          =  N/A
# T_peri           =  N/A
######################################################
   0  8215.576
   1  8535.457
   2  9344.195
   3  8815.415
   4  8258.124
   5  7979.246
   6  8510.365
   7  7661.138
   8  8128.123
   9  8745.193
  10  8035.985
  11  8369.117
  12  8504.006
  13  8563.602
  14  9384.322
  15  9664.923
  16  9752.337
  17  9611.321
  18  10661.2
  19  10749.36
  20  10226.44
  21  9381.465
  22  9225.125
  23  9478.978
  24  9909.51
  25  9148.739
  26  8772.897
  27  9005.677
  28  9293.681
  29  9797.122
  30  9165.29
  31  8892.736
  32  8978.324
  33  9163.021
  34  8297.924
  35  8688.688
  36  8758.147
  37  8267.636
  38  8976.699
  39  9118.052
  40  8796.786
  41  8681.25
  42  8613.619
  43  8126.479
  44  8161.857
  45  8108.614
  46  8175.1
  47  8740.662
  48  8578.654
  49  8723.79
  50  9450.454
  51  9904.081
  52  9371.794
  53  9750.212
  54  9764.154
  55  9880.258
  56  10042.61
  57  9704.091
  58  9096.222
  59  8973.561
  60  9723.565
  61  9483.886
  62  9208.583
  63  9913.162
  64  9745.569
  65  9477.764
  66  10619.29
  67  10508.51
  68  9322.672
  69  9286.744
  70  10316.44
  71  9408.963
  72  8971.881
  73  8254.528
  74  7713.921
  75  6597.041
  76  6274.991
  77  6196.834
  78  7289.267
  79  7152.143
  80  7343.118
  81  6989.448
  82  7077.454
  83  7245.56
  84  7051.91
  85  8291.401
  86  7864.113
  87  8591.434
  88  9376.899
  89  9289.594
  90  9599.469
  91  8584.949
  92  8376.088
  93  8620.167
  94  7770.842
  95  8460.604
  96  8431.056
  97  8304.19
  98  8786.157
  99  8542.557
 100  7871.958
 101  7982.819
 102  8919.278
 103  9167.303
 104  9361.43
 105  9780.126
 106  10123.4
 107  8900.89
 108  9082.069
 109  9081.516
 110  8586.157
 111  8669.318
 112  7784.678
 113  7606.996
 114  7916.332
 115  7650.111
 116  7675.847
 117  8007.731
 118  7850.058
 119  7425.834
 120  7906.657
 121  8217.954
 122  8212.974
 123  9067.724
 124  8071.51
 125  9439.666
 126  9441.771
 127  9550.989
 128  9636.621
 129  9606.934
 130  9898.731
 131  8915.442
 132  8572.828
 133  8528.896
 134  8597.297
 135  7952.246
 136  8241.888
 137  8047.154
 138  8726.365
 139  8965.006
 140  9178.193
 141  8990.223
 142  8514.477
 143  8495.793
 144  8289.488
 145  8474.664
 146  8173.586
 147  9290.479
 148  9185.232
 149  10888.3
 150  12252.68
 151  11734.51
 152  9074.616
 153  7660.443
 154  6598.418
 155  7529.211
 156  8997.801
 157  8461.505
 158  8813.848
 159  9037.139
 160  9293.346
 161  8482.802
 162  8848.523
 163  9391.246
 164  8408.613
 165  8367.348
 166  8122.263
 167  8448.724
 168  8403.876
 169  8503.594
 170  8018.579
 171  7989.747
 172  7216.371
 173  7445.812
 174  8072.833
 175  8170.584
 176  7416.366
 177  7339.437
 178  8064.099
 179  7442.917
 180  6819.667
 181  7035.64
 182  7484.435
 183  7752.632
 184  6683.662
 185  7051.468
 186  7708.973
 187  6632.19
 188  7080.717
 189  7973.328
 190  8093.523
 191  7524.421
 192  8493.949
 193  8763.836
 194  9102.709
 195  8835.323
 196  8597.081
 197  9112.611
 198  8363.479
 199  9060.168
 200  9818.161
 201  9028.434
 202  8804.556
 203  9133.516
 204  9036.395
 205  8015.652
 206  8619.557
 207  7990.423
 208  8072.003
 209  7190.097
 210  7839.667
 211  9133.067
 212  8797.883
 213  8692.364
 214  9206.658
 215  9186.003
 216  9215.615
 217  8205.764
 218  7425.931
 219  6764.451
 220  7721.822
 221  8688.039
 222  7587.358
 223  7407.254
 224  7742.902
 225  8023.317
 226  7325.743
 227  7406.648
 228  8668.981
 229  8589.549
 230  8580.825
 231  9160.062
 232  9762.686
 233  9649.669
 234  10183.16
 235  9510.378
 236  9315.405
 237  8838.594
 238  8555.073
 239  8196.005
 240  7873.714
 241  7772.806
 242  7359.282
 243  7479.508
 244  7555.092
 245  7477.863
 246  7920.013
 247  8221.901
 248  6978.624
 249  7871.373
 250  7956.83
 251  8446.955
 252  8465.714
 253  8880.16
 254  8651.83
 255  8536.979
