# Input file       =  1208786440.114979_cleaned.dat
# Candidate        =  PSR_0332+5434
# Telescope        =  AR
# Epoch_topo       =  58234.584017534478
# Epoch_bary       =  N/A
# T_sample         =  0.002
# Data Folded      =  7340032
# Data Avg         =  0.318804461138955
# Data StdDev      =  6.1667371148165  
# Profile Bins     =  512
# Profile Avg      =  4570.44410698341 
# Profile StdDev   =  738.362159294278 
# Reduced chi-sqr  =  0.922
# Prob(Noise)      <  0.897   (~0.0 sigma)
# P_topo (ms)      =  714.550979942225  +/- 0.000678
# P'_topo (s/s)    =  -0                +/- 3.58e-10
# P''_topo (s/s^2) =  0                 +/- 1.58e-13
# P_bary (ms)      =  N/A
# P'_bary (s/s)    =  N/A
# P''_bary (s/s^2) =  N/A
# P_orb (s)        =  N/A
# asin(i)/c (s)    =  N/A
# eccentricity     =  N/A
# w (rad)          =  N/A
# T_peri           =  N/A
######################################################
   0  4323.891
   1  4110.064
   2  4586.894
   3  4629.283
   4  4160.517
   5  4296.672
   6  4174.669
   7  4634.475
   8  4750.564
   9  4393.915
  10  4382.818
  11  4487.242
  12  4080.249
  13  4090.625
  14  4308.5
  15  4157.833
  16  3961.705
  17  4475.489
  18  4862.854
  19  4795.883
  20  4648.575
  21  4818.65
  22  4902.562
  23  4774.734
  24  5337.058
  25  5612.504
  26  5509.096
  27  5357.611
  28  5212.396
  29  5412.485
  30  5245.738
  31  5070.432
  32  5053.679
  33  5201.887
  34  4968.066
  35  5145.237
  36  5175.092
  37  5334.842
  38  5312.613
  39  5414.062
  40  5117.452
  41  5511.697
  42  5689.446
  43  5491.898
  44  5531.718
  45  5254.146
  46  4695.563
  47  4339.398
  48  4828.256
  49  4543.382
  50  3928.92
  51  4279.202
  52  4363.098
  53  4502.554
  54  4516.615
  55  4587.038
  56  4633.208
  57  4302.339
  58  4425.081
  59  4703.942
  60  4539.611
  61  4137.475
  62  4540.296
  63  4411.645
  64  4133.916
  65  4155.586
  66  4431.071
  67  4202.178
  68  3596.682
  69  3652.608
  70  3759.33
  71  3601.249
  72  3734.186
  73  4095.848
  74  4185.762
  75  4182.585
  76  4044.88
  77  4051.755
  78  4169.005
  79  4200.793
  80  4289.49
  81  4762.542
  82  4541.125
  83  4500.096
  84  4459.708
  85  4380.803
  86  4193.863
  87  4050.925
  88  4490.316
  89  4530.185
  90  4615.375
  91  4452.726
  92  4644.789
  93  4551.02
  94  4589.507
  95  4970.186
  96  4938.377
  97  5043.521
  98  5358.423
  99  5272.936
 100  4949.819
 101  4667.528
 102  4458.399
 103  4331.123
 104  4534.852
 105  4716.917
 106  4555.134
 107  4542.085
 108  5017.017
 109  5039.375
 110  4973.758
 111  4682.035
 112  4380.117
 113  4015
 114  4284.646
 115  4545.459
 116  4521.552
 117  4391.446
 118  3864.518
 119  4138.781
 120  4260.521
 121  3960.561
 122  3899.376
 123  4113.381
 124  4139.264
 125  4025.54
 126  3834.105
 127  3424.611
 128  3266.647
 129  3811.167
 130  4082.789
 131  4026.454
 132  3930.106
 133  3919.664
 134  3554.679
 135  3233.488
 136  3337.722
 137  3691.007
 138  3656.523
 139  3627.46
 140  3985.134
 141  4018.272
 142  3840.554
 143  4129
 144  3886.051
 145  3818.875
 146  3666.796
 147  3810.619
 148  3982.614
 149  3933.432
 150  3845.815
 151  3596.522
 152  4058.976
 153  3927.653
 154  3793.271
 155  3699.551
 156  4125.695
 157  3536.716
 158  3554.877
 159  3732.778
 160  3820.977
 161  3411.957
 162  3374.645
 163  3661.193
 164  3683.192
 165  3732.204
 166  3361.409
 167  3593.297
 168  4130.611
 169  3771.201
 170  3899.591
 171  3995.114
 172  3640.938
 173  4136.363
 174  4808.267
 175  4849.609
 176  4717.312
 177  4916.727
 178  4785.712
 179  4894.602
 180  4950.749
 181  4533.194
 182  4537.815
 183  4930.339
 184  4696.273
 185  4667.933
 186  4865.105
 187  4667.422
 188  4745.469
 189  4095.252
 190  4125.248
 191  4523.243
 192  4784.84
 193  4253.872
 194  4222.725
 195  5079.089
 196  4715.147
 197  4434.074
 198  4811.131
 199  4845.481
 200  4935.372
 201  4715.321
 202  5005.481
 203  4806.795
 204  4422.242
 205  4880.828
 206  5082.333
 207  5036.521
 208  4880.823
 209  4859.514
 210  4939.247
 211  4820.762
 212  4998.016
 213  5031.197
 214  5401
 215  5161.934
 216  4923.678
 217  4742.78
 218  4575.112
 219  4705.672
 220  5054.187
 221  5002.701
 222  4764.535
 223  5071.789
 224  4964.667
 225  4770.79
 226  4569.3
 227  4778.189
 228  5047.5
 229  5127.948
 230  4835.664
 231  4769.472
 232  4769.269
 233  4841.706
 234  5030.84
 235  4964.805
 236  4903.302
 237  4884.141
 238  4810.014
 239  4693.72
 240  4901.07
 241  4998.503
 242  5015.083
 243  5335.695
 244  5589.592
 245  5459.622
 246  5144.481
 247  5013.605
 248  5201.307
 249  4911.512
 250  4970.592
 251  5067.285
 252  5386.434
 253  5200.379
 254  5202.283
 255  5427.795
 256  5496.473
 257  5469.088
 258  5061.015
 259  4913.231
 260  5528.008
 261  6040.353
 262  5433.063
 263  5113.214
 264  5082.823
 265  5139.609
 266  5281.661
 267  5259.643
 268  4809.912
 269  4879.956
 270  5011.724
 271  5184.509
 272  4840.618
 273  4684.006
 274  4512.299
 275  4792.101
 276  4921.087
 277  4514.499
 278  4728.383
 279  4998
 280  4975.674
 281  4813.955
 282  4717.032
 283  4606.394
 284  4745.82
 285  5063.153
 286  5143.5
 287  5034.391
 288  5072.458
 289  4519.817
 290  4117.312
 291  4311.655
 292  4567.721
 293  4508.009
 294  4793.273
 295  5084.197
 296  5169.739
 297  5393.147
 298  5801.135
 299  5874.296
 300  6160.926
 301  6437.201
 302  6524.971
 303  6012.821
 304  5118.708
 305  4592.396
 306  4093.965
 307  3926.253
 308  4217.302
 309  4292.146
 310  3615.237
 311  3791.838
 312  3854.031
 313  3999.37
 314  4081.397
 315  3963.069
 316  3941.362
 317  4110.59
 318  3942.881
 319  3865.997
 320  4208.017
 321  3939.245
 322  3728.948
 323  4005.975
 324  4280.448
 325  4700.497
 326  4784.748
 327  4573.199
 328  4458.261
 329  4499.105
 330  4408.52
 331  4643.19
 332  5046.173
 333  5210.07
 334  4739.234
 335  4469.43
 336  4430.046
 337  4322.958
 338  4645.576
 339  4672.229
 340  4605.708
 341  4510.301
 342  4700.115
 343  4718.611
 344  4593.561
 345  4610.287
 346  4427.41
 347  4832.391
 348  4861.405
 349  4982.557
 350  4810.4
 351  4398.466
 352  4211.902
 353  3938.475
 354  4179.131
 355  4541.738
 356  4410.804
 357  4374.753
 358  4397.914
 359  4589.705
 360  4498.832
 361  3961.259
 362  4219.029
 363  4301.588
 364  4359.176
 365  4391.354
 366  4102.498
 367  4118.638
 368  4290.404
 369  4592.205
 370  4608.73
 371  4662.356
 372  4683.701
 373  4620.556
 374  4675.075
 375  5225.07
 376  4982.247
 377  4804.558
 378  5299.151
 379  5108.401
 380  5205.66
 381  5053.05
 382  4812.18
 383  4690.894
 384  5011.081
 385  5099.815
 386  5123.459
 387  4668.39
 388  4628.894
 389  4985.936
 390  5129.805
 391  5122.762
 392  4893.456
 393  5314.893
 394  5176.021
 395  5158.144
 396  5474.35
 397  5386.156
 398  5261.984
 399  5129.826
 400  5122.659
 401  4991.376
 402  5077.484
 403  4994.56
 404  4404.353
 405  4442.188
 406  4700.731
 407  4315.421
 408  4292.496
 409  4814.958
 410  4399.106
 411  4652.976
 412  5170.219
 413  4682.625
 414  4623.047
 415  4853.066
 416  5207.392
 417  4766.755
 418  4578.358
 419  4571.468
 420  4677.55
 421  4794.957
 422  4701.632
 423  4572.893
 424  4567.598
 425  4003.634
 426  4041.836
 427  3984.002
 428  4034.205
 429  4378.838
 430  4402.37
 431  4649.649
 432  4524.489
 433  4488.107
 434  4186.467
 435  4035.613
 436  4081.14
 437  4072.021
 438  4328.71
 439  4156.287
 440  4087.788
 441  4034.807
 442  4040.161
 443  3904.917
 444  3795.601
 445  4007.896
 446  4037.76
 447  4336.927
 448  4374.639
 449  4549.047
 450  4584.509
 451  4397.502
 452  4411.782
 453  4169.667
 454  4551.775
 455  4399.505
 456  4003.333
 457  3979.263
 458  4653.475
 459  4759.679
 460  4665.69
 461  4542.792
 462  4723.46
 463  4970.347
 464  4613.754
 465  4507.775
 466  5127.199
 467  5380.057
 468  5135.121
 469  4972.262
 470  4960.912
 471  4740.119
 472  4557.878
 473  4354.337
 474  4408.387
 475  4557.445
 476  4689.684
 477  4919.179
 478  4724.04
 479  4555.738
 480  4214.144
 481  4098.484
 482  3924.083
 483  4020.661
 484  4073.716
 485  3803.025
 486  3627.036
 487  3757.738
 488  4024.154
 489  4130.716
 490  4450.545
 491  4456.91
 492  4514.416
 493  4389.554
 494  4131.318
 495  4119.363
 496  4722.225
 497  4696.103
 498  4546.195
 499  4417.808
 500  4258.528
 501  4403.076
 502  4442.959
 503  4717.246
 504  4954.545
 505  4596.397
 506  4741.192
 507  4663.143
 508  4521.141
 509  4524.823
 510  4127.779
 511  4325.078
