# Input file       =  1208441724.10273_cleaned.dat
# Candidate        =  PSR_0332+5434
# Telescope        =  AR
# Epoch_topo       =  58230.594248874193
# Epoch_bary       =  N/A
# T_sample         =  0.002
# Data Folded      =  7340032
# Data Avg         =  0.182748956389592
# Data StdDev      =  4.68098738784448 
# Profile Bins     =  1024
# Profile Avg      =  1309.95730543736 
# Profile StdDev   =  396.311312590923 
# Reduced chi-sqr  =  1.263
# Prob(Noise)      <  1.88e-08   (~5.5 sigma)
# P_topo (ms)      =  714.554390055776  +/- 0.000238
# P'_topo (s/s)    =  -0                +/- 1.26e-10
# P''_topo (s/s^2) =  0                 +/- 5.55e-14
# P_bary (ms)      =  N/A
# P'_bary (s/s)    =  N/A
# P''_bary (s/s^2) =  N/A
# P_orb (s)        =  N/A
# asin(i)/c (s)    =  N/A
# eccentricity     =  N/A
# w (rad)          =  N/A
# T_peri           =  N/A
######################################################
   0  1439.123
   1  1445.061
   2  1427.906
   3  1474.278
   4  1414.712
   5  1430.093
   6  1355.264
   7  1313.795
   8  1141.981
   9  1183.726
  10  1196.483
  11  1223.428
  12  1257.56
  13  1375.865
  14  1451.284
  15  1460.442
  16  1306.585
  17  1242.548
  18  1229.369
  19  1319.356
  20  1404.099
  21  1338.626
  22  1221.51
  23  963.953
  24  949.5007
  25  955.3554
  26  1058.375
  27  1024.935
  28  1013.541
  29  1034.851
  30  1000.948
  31  940.6943
  32  941.182
  33  1035.276
  34  1094.72
  35  1074.153
  36  988.039
  37  891.0843
  38  849.5878
  39  914.3082
  40  946.6738
  41  998.044
  42  1097.083
  43  1149.473
  44  1187.198
  45  1215.305
  46  1161.407
  47  1109.117
  48  1089.805
  49  1114.987
  50  1098.304
  51  1069.945
  52  1080
  53  1178.485
  54  1275.992
  55  1162.787
  56  999.9215
  57  1067.721
  58  1212.358
  59  1426.037
  60  1411.776
  61  1452.155
  62  1487.564
  63  1523.15
  64  1446.368
  65  1340.8
  66  1253.412
  67  1178.251
  68  1310.615
  69  1430.283
  70  1425.011
  71  1433.713
  72  1336.827
  73  1439.028
  74  1388.693
  75  1464.148
  76  1460.162
  77  1505.989
  78  1429.351
  79  1366.861
  80  1402.034
  81  1403.113
  82  1408.494
  83  1333.139
  84  1333.5
  85  1286.601
  86  1276.809
  87  1270.154
  88  1402.553
  89  1332.833
  90  1284.052
  91  1164.433
  92  1326.743
  93  1332.016
  94  1415.299
  95  1407.773
  96  1481.89
  97  1511.035
  98  1590.447
  99  1553.491
 100  1504.21
 101  1435.119
 102  1370.703
 103  1359.456
 104  1471.068
 105  1596.039
 106  1566.304
 107  1397.955
 108  1270.003
 109  1315.23
 110  1315.368
 111  1278.479
 112  1190.368
 113  1232.498
 114  1233.459
 115  1336.543
 116  1344.444
 117  1426.026
 118  1448.697
 119  1301.459
 120  1398.577
 121  1359.296
 122  1425.895
 123  1322.371
 124  1390.272
 125  1479.352
 126  1608.867
 127  1649.539
 128  1511.252
 129  1489.157
 130  1486.667
 131  1582.094
 132  1572.828
 133  1670.824
 134  1739.16
 135  1801.168
 136  1821.609
 137  1713.166
 138  1661.937
 139  1543.164
 140  1662.333
 141  1757.732
 142  1735.838
 143  1666.165
 144  1658.035
 145  1633.528
 146  1675.038
 147  1594.641
 148  1666.121
 149  1541.485
 150  1551.84
 151  1464.222
 152  1460.413
 153  1581.407
 154  1570.921
 155  1641.158
 156  1516.33
 157  1417.406
 158  1279.157
 159  1293.956
 160  1373.211
 161  1440.527
 162  1538.54
 163  1575.521
 164  1545.405
 165  1432.653
 166  1431.756
 167  1426.44
 168  1283.795
 169  1306.137
 170  1347.215
 171  1492.037
 172  1519.539
 173  1661.764
 174  1729.474
 175  1601.922
 176  1391.321
 177  1361.079
 178  1311.035
 179  1269.862
 180  1347.103
 181  1365.818
 182  1238.94
 183  1027.677
 184  1053.555
 185  1122.088
 186  1134.217
 187  1145.019
 188  1176.092
 189  1247.667
 190  1261.252
 191  1193.765
 192  1088.231
 193  958.3026
 194  928.2212
 195  939.5437
 196  877.9771
 197  940.1475
 198  997.6201
 199  1135.277
 200  1086.062
 201  1071.45
 202  1052.832
 203  971.379
 204  1090.612
 205  1139.915
 206  1157.547
 207  1044.126
 208  1095.774
 209  1224.458
 210  1274.284
 211  1294.877
 212  1257.155
 213  1302.424
 214  1324.286
 215  1441.729
 216  1498.572
 217  1484.509
 218  1302.758
 219  1273.206
 220  1297.071
 221  1366.098
 222  1331.281
 223  1347.941
 224  1337.948
 225  1448.735
 226  1510.168
 227  1542.153
 228  1555.775
 229  1519.541
 230  1462.814
 231  1427.42
 232  1386.784
 233  1347.926
 234  1406.463
 235  1442.652
 236  1550.893
 237  1514.937
 238  1525.064
 239  1492.825
 240  1467.944
 241  1513.589
 242  1504.121
 243  1420.661
 244  1244.816
 245  1296.361
 246  1479.672
 247  1508.458
 248  1440.686
 249  1408.388
 250  1559.888
 251  1642.464
 252  1606.793
 253  1480.575
 254  1449.261
 255  1510.237
 256  1535.59
 257  1493.025
 258  1536.675
 259  1499.127
 260  1578.172
 261  1564.059
 262  1499.914
 263  1355.147
 264  1468.893
 265  1640.985
 266  1761.566
 267  1654.094
 268  1489.679
 269  1551.462
 270  1696.425
 271  1754.368
 272  1833.242
 273  1805.986
 274  1818.583
 275  1727.566
 276  1802.925
 277  1713.253
 278  1581.961
 279  1576.717
 280  1683.356
 281  1650.224
 282  1522.189
 283  1416.224
 284  1516.002
 285  1651.43
 286  1664.521
 287  1610.307
 288  1608.113
 289  1675.931
 290  1645.119
 291  1651.53
 292  1589.928
 293  1501.721
 294  1292.315
 295  1186.239
 296  1244.078
 297  1420.056
 298  1501.357
 299  1653.616
 300  1661.971
 301  1603.542
 302  1431.263
 303  1389.048
 304  1467.267
 305  1441.842
 306  1484.18
 307  1484.978
 308  1554.654
 309  1453.77
 310  1421.888
 311  1320.287
 312  1289.905
 313  1262.629
 314  1355.034
 315  1368.899
 316  1350.303
 317  1198.658
 318  1184.103
 319  1242.536
 320  1371.447
 321  1549.108
 322  1456.526
 323  1348.136
 324  1085.815
 325  1140.67
 326  1047.998
 327  1051.871
 328  1076.044
 329  1192.91
 330  1176.507
 331  1102.377
 332  1090.325
 333  950.1146
 334  1027.932
 335  1052.533
 336  1209.067
 337  1139.114
 338  1114.543
 339  1055.843
 340  1046.615
 341  1075.031
 342  1072.023
 343  1170.496
 344  1068.211
 345  1095.839
 346  989.7957
 347  1076.725
 348  1040.018
 349  949.5007
 350  1022.829
 351  1171.096
 352  1306.662
 353  1135.94
 354  1080.928
 355  1101.448
 356  1229.289
 357  1267.091
 358  1310.505
 359  1350.3
 360  1327.085
 361  1300.836
 362  1217.562
 363  1122.98
 364  1144.257
 365  1069.393
 366  1152.296
 367  1132.64
 368  1136.869
 369  1128.127
 370  1307.057
 371  1426.94
 372  1338.633
 373  1241.648
 374  1301.802
 375  1499.661
 376  1549.977
 377  1385.854
 378  1334.175
 379  1353.809
 380  1350.15
 381  1366.835
 382  1445.519
 383  1554.665
 384  1492.879
 385  1367.218
 386  1328.758
 387  1381.307
 388  1451.615
 389  1358.836
 390  1240.795
 391  1310.169
 392  1473.708
 393  1582.689
 394  1654.113
 395  1516.804
 396  1452.304
 397  1418.809
 398  1477.739
 399  1594.457
 400  1598.613
 401  1591.695
 402  1419.081
 403  1368.888
 404  1333.047
 405  1346.555
 406  1449.251
 407  1373.961
 408  1341.022
 409  1427.722
 410  1544.435
 411  1530.693
 412  1491.159
 413  1568.855
 414  1616.604
 415  1416.697
 416  1255.91
 417  1167.034
 418  1275.483
 419  1368.841
 420  1408.181
 421  1289.383
 422  1079.591
 423  1184.634
 424  1416.549
 425  1686.864
 426  1659.748
 427  1538.78
 428  1471.144
 429  1448.752
 430  1449.723
 431  1291.391
 432  1272.252
 433  1292.919
 434  1441.85
 435  1447.453
 436  1455.528
 437  1356.598
 438  1430.562
 439  1595.043
 440  1540.773
 441  1344.134
 442  1223.743
 443  1324.448
 444  1450.455
 445  1357.252
 446  1201.89
 447  1061.013
 448  1059.716
 449  1039.876
 450  992.3909
 451  1119.238
 452  1266.833
 453  1342.149
 454  1226.701
 455  1083.695
 456  1030.74
 457  1015.92
 458  1172.693
 459  1103.493
 460  1055.943
 461  1089.759
 462  1047.629
 463  889.5255
 464  817.0568
 465  868.1712
 466  971.3255
 467  886.5307
 468  836.9714
 469  850.4946
 470  938.3107
 471  1036.694
 472  1055.744
 473  992.6033
 474  1039.48
 475  1087.44
 476  1099.023
 477  970.4733
 478  835.2997
 479  897.959
 480  982.672
 481  1006.615
 482  989.053
 483  946.3547
 484  1044.469
 485  980.3455
 486  936.7492
 487  846.536
 488  860.3879
 489  901.2997
 490  965.9614
 491  871.6395
 492  871.109
 493  935.3707
 494  954.0013
 495  945.0171
 496  880.5073
 497  908.8575
 498  886.1888
 499  982.0557
 500  1004.987
 501  1006.821
 502  986.6636
 503  979.2477
 504  1012.084
 505  1074.915
 506  1046.415
 507  1085.824
 508  1186.291
 509  1292.78
 510  1076.352
 511  895.249
 512  749.5622
 513  699.7178
 514  706.9111
 515  865.9272
 516  975.9908
 517  1085.717
 518  1076.951
 519  1175.836
 520  1188.142
 521  1250.143
 522  1249.335
 523  1167.475
 524  1131.708
 525  978.2462
 526  978.0511
 527  864.3575
 528  786.4
 529  880.7798
 530  1001.403
 531  1091.116
 532  1079.887
 533  920.6669
 534  1018.687
 535  1124.634
 536  1398.581
 537  1416.071
 538  1343.368
 539  1160.095
 540  1073.517
 541  1197
 542  1332.455
 543  1280.595
 544  1100.275
 545  1055.328
 546  1095.041
 547  1190.865
 548  1144.57
 549  1089.469
 550  1145.973
 551  1178.2
 552  1087.042
 553  1017.425
 554  1098.121
 555  1268.349
 556  1319.628
 557  1294.496
 558  1168.493
 559  1133.239
 560  1158.813
 561  1215.562
 562  1275.79
 563  1323.154
 564  1452.217
 565  1432.403
 566  1394.129
 567  1442.477
 568  1465.344
 569  1452.263
 570  1356.994
 571  1446.297
 572  1575.926
 573  1559.792
 574  1526.923
 575  1430.186
 576  1397.824
 577  1252.967
 578  1318.625
 579  1216.874
 580  1228.193
 581  1262.628
 582  1422.943
 583  1466.926
 584  1407.944
 585  1349.771
 586  1334.983
 587  1521.703
 588  1547.84
 589  1452.336
 590  1448.255
 591  1538.11
 592  1599.567
 593  1470.186
 594  1541.484
 595  1654.722
 596  1793.811
 597  1883.928
 598  2031.771
 599  2169.343
 600  2247.027
 601  2223.989
 602  2246.885
 603  2204.324
 604  2204.518
 605  2174.603
 606  2146.456
 607  1944.672
 608  1672.83
 609  1393.934
 610  1198.45
 611  992.604
 612  1065.777
 613  1027.652
 614  1133.095
 615  1131.729
 616  1215.911
 617  1177.601
 618  898.9183
 619  995.3412
 620  988.1819
 621  1109.914
 622  939.4528
 623  865.8478
 624  833.9238
 625  815.9285
 626  888.2037
 627  873.8777
 628  925.5453
 629  914.4111
 630  932.4376
 631  893.8038
 632  853.8917
 633  770.1303
 634  797.4207
 635  855.265
 636  905.9645
 637  818.1201
 638  791.3555
 639  772.2108
 640  734.4226
 641  685.0855
 642  723.6521
 643  836.7083
 644  874.9264
 645  899.1543
 646  803.7672
 647  826.228
 648  892.2253
 649  1035.616
 650  1000.179
 651  985.2621
 652  889.8204
 653  925.9373
 654  913.1608
 655  758.4378
 656  756.4543
 657  900.3958
 658  1142.06
 659  1248.299
 660  1109.466
 661  958.7033
 662  1045.629
 663  1175.92
 664  1297.305
 665  1221.777
 666  1260.183
 667  1303.314
 668  1444.101
 669  1469.347
 670  1293.857
 671  1087.074
 672  1085.024
 673  1170.671
 674  1131.824
 675  1099.872
 676  1074.082
 677  1090.728
 678  1227.517
 679  1314.19
 680  1452.377
 681  1432.983
 682  1432.921
 683  1485.709
 684  1603.853
 685  1499.583
 686  1447.138
 687  1382.582
 688  1500.159
 689  1441.214
 690  1437.83
 691  1535.889
 692  1623.247
 693  1603.728
 694  1585.723
 695  1502.176
 696  1490.287
 697  1377.733
 698  1326.841
 699  1325.91
 700  1427.975
 701  1490.503
 702  1534.62
 703  1591.855
 704  1618.89
 705  1609.847
 706  1650.72
 707  1669.975
 708  1747.068
 709  1783.723
 710  1744.536
 711  1617.436
 712  1538.297
 713  1595.835
 714  1647.577
 715  1588.272
 716  1587.609
 717  1625.564
 718  1713.795
 719  1789.872
 720  1757.897
 721  1728.044
 722  1671.484
 723  1649.588
 724  1620.344
 725  1589.294
 726  1545.016
 727  1623.085
 728  1622.003
 729  1647.203
 730  1640.562
 731  1595.303
 732  1462.183
 733  1436.776
 734  1467.386
 735  1485.896
 736  1432.038
 737  1446.123
 738  1464.191
 739  1465.991
 740  1377.82
 741  1292.397
 742  1362.641
 743  1335.315
 744  1164.195
 745  1029.431
 746  979.8326
 747  1136.593
 748  1153.55
 749  1103.64
 750  884.9858
 751  841.6205
 752  1027.287
 753  1256.411
 754  1268.395
 755  1272.108
 756  1288.097
 757  1304.726
 758  1237.726
 759  1207.213
 760  1229.765
 761  1229.379
 762  1180.756
 763  1007.074
 764  965.0878
 765  970.1735
 766  1050.749
 767  1119.109
 768  1123.853
 769  1240.677
 770  1162.883
 771  1035.458
 772  835.4105
 773  810.5798
 774  851.4175
 775  949.1553
 776  927.8229
 777  975.9221
 778  919.4426
 779  992.3781
 780  1065.253
 781  968.0665
 782  957.0873
 783  966.4021
 784  1032.222
 785  1011.279
 786  1055.758
 787  1040.267
 788  1021.276
 789  1031.577
 790  1077.165
 791  1088.047
 792  1075.477
 793  1019.999
 794  1073.62
 795  1111.456
 796  1206
 797  1209.116
 798  1237.074
 799  1242.812
 800  1284.547
 801  1365.891
 802  1435.228
 803  1384.47
 804  1275.099
 805  1374.94
 806  1425.374
 807  1475.896
 808  1275.876
 809  1235.205
 810  1288.812
 811  1260.018
 812  1372.109
 813  1354.906
 814  1406.194
 815  1351.752
 816  1303.183
 817  1366.574
 818  1371.583
 819  1329.734
 820  1379.714
 821  1371.717
 822  1471.89
 823  1505.826
 824  1539.341
 825  1408.529
 826  1333.933
 827  1324.904
 828  1413.639
 829  1383.916
 830  1407.438
 831  1346.647
 832  1462.694
 833  1488.298
 834  1597.696
 835  1579.15
 836  1542.598
 837  1420.09
 838  1360.986
 839  1470.577
 840  1530.255
 841  1544.687
 842  1557.879
 843  1628.832
 844  1521.279
 845  1385.396
 846  1249.947
 847  1347.139
 848  1426.429
 849  1521.413
 850  1545.534
 851  1442.015
 852  1524.011
 853  1519.063
 854  1641.071
 855  1673.511
 856  1638.046
 857  1533.983
 858  1429.286
 859  1428.323
 860  1438.438
 861  1396.412
 862  1387.227
 863  1494.141
 864  1605.104
 865  1722.766
 866  1655.294
 867  1624.221
 868  1658.468
 869  1602.322
 870  1621.177
 871  1527.995
 872  1632.524
 873  1632.495
 874  1548.748
 875  1421.477
 876  1339.961
 877  1365.362
 878  1357.725
 879  1440.206
 880  1348.468
 881  1333.361
 882  1371.505
 883  1599.819
 884  1678.825
 885  1715.329
 886  1583.28
 887  1483.243
 888  1575.937
 889  1614.487
 890  1564.622
 891  1399.837
 892  1393.507
 893  1387.282
 894  1453.691
 895  1418.392
 896  1330.473
 897  1269.574
 898  1358.311
 899  1416.195
 900  1448.02
 901  1340.385
 902  1303.608
 903  1379.176
 904  1464.553
 905  1444.586
 906  1237.536
 907  1140.246
 908  1184.796
 909  1341.823
 910  1477.067
 911  1373.326
 912  1234.103
 913  1258.657
 914  1253.087
 915  1266.748
 916  1103.267
 917  1095.039
 918  1142.998
 919  1205.067
 920  1296.743
 921  1270.117
 922  1248.005
 923  1150.509
 924  1015.271
 925  1006.523
 926  864.6122
 927  930.5667
 928  925.2924
 929  1086.329
 930  1134.136
 931  1123.53
 932  1045.478
 933  1130.859
 934  1195.215
 935  1276.965
 936  1303.249
 937  1412.356
 938  1456.981
 939  1385.237
 940  1298.169
 941  1291.93
 942  1416.295
 943  1501.65
 944  1419.714
 945  1239.219
 946  1196.927
 947  1155.059
 948  1141.727
 949  1155.843
 950  1138.604
 951  1133.526
 952  963.1642
 953  996.4169
 954  1017.012
 955  1135.247
 956  1312.128
 957  1429.68
 958  1429.224
 959  1344.196
 960  1301.022
 961  1335.352
 962  1404.241
 963  1309.911
 964  1334.937
 965  1415.438
 966  1575.172
 967  1529.378
 968  1342.664
 969  1152.228
 970  1190.736
 971  1306.925
 972  1341.126
 973  1286.344
 974  1255.056
 975  1267.891
 976  1244.419
 977  1181.807
 978  1280.534
 979  1282.32
 980  1275.848
 981  1255.921
 982  1360.576
 983  1492.145
 984  1469.014
 985  1358.915
 986  1207.424
 987  1308.734
 988  1415.627
 989  1484.878
 990  1395.793
 991  1384.281
 992  1388.942
 993  1352.824
 994  1360.34
 995  1422.116
 996  1486.333
 997  1349.783
 998  1322.923
 999  1331.035
1000  1354.355
1001  1408.193
1002  1526.404
1003  1689.845
1004  1690.586
1005  1607.183
1006  1538.152
1007  1412.719
1008  1406.732
1009  1390.161
1010  1495.663
1011  1499.464
1012  1658.103
1013  1626.475
1014  1530.419
1015  1431.654
1016  1371.775
1017  1293.119
1018  1203.511
1019  1305.325
1020  1265.733
1021  1295.018
1022  1358.907
1023  1493.275
