# Input file       =  1208943319.116623_cleaned.dat
# Candidate        =  PSR_0332+5434
# Telescope        =  AR
# Epoch_topo       =  58236.399746720170
# Epoch_bary       =  N/A
# T_sample         =  0.002
# Data Folded      =  7340032
# Data Avg         =  0.0444653547683859
# Data StdDev      =  1.00015680132244 
# Profile Bins     =  512
# Profile Avg      =  637.458316672908 
# Profile StdDev   =  119.751810675209 
# Reduced chi-sqr  =  1.168
# Prob(Noise)      <  0.00514   (~2.6 sigma)
# P_topo (ms)      =  714.549043526544  +/- 0.000399
# P'_topo (s/s)    =  -0                +/- 2.1e-10
# P''_topo (s/s^2) =  0                 +/- 9.29e-14
# P_bary (ms)      =  N/A
# P'_bary (s/s)    =  N/A
# P''_bary (s/s^2) =  N/A
# P_orb (s)        =  N/A
# asin(i)/c (s)    =  N/A
# eccentricity     =  N/A
# w (rad)          =  N/A
# T_peri           =  N/A
######################################################
   0  1206.511
   1  1108.738
   2  933.2888
   3  724.0681
   4  662.0646
   5  628.4052
   6  627.1159
   7  604.0992
   8  729.7377
   9  686.3817
  10  606.5875
  11  592.7255
  12  591.9431
  13  622.7942
  14  620.5292
  15  694.1741
  16  746.6068
  17  584.5157
  18  558.3518
  19  547.4642
  20  566.3119
  21  640.927
  22  664.7861
  23  648.7102
  24  587.6698
  25  564.5135
  26  683.0879
  27  580.0059
  28  592.2476
  29  696.2221
  30  620.6835
  31  657.2739
  32  688.4528
  33  652.6093
  34  679.0952
  35  631.2238
  36  705.9448
  37  815.7634
  38  696.4174
  39  711.6277
  40  654.5272
  41  706.7022
  42  753.0031
  43  708.5294
  44  686.9509
  45  642.7362
  46  720.2789
  47  665.4078
  48  636.4218
  49  610.2307
  50  662.7331
  51  653.4667
  52  598.754
  53  659.4283
  54  630.3555
  55  718.2861
  56  700.5222
  57  763.7252
  58  755.0713
  59  699.207
  60  744.2285
  61  773.3262
  62  703.9041
  63  694.2434
  64  732.5118
  65  760.9921
  66  772.8959
  67  811.1212
  68  807.0613
  69  732.4961
  70  718.3119
  71  751.8734
  72  684.2455
  73  727.4431
  74  783.4103
  75  754.5294
  76  794.0496
  77  749.1948
  78  738.0082
  79  740.0457
  80  662.4217
  81  587.1443
  82  550.4841
  83  526.748
  84  611.8996
  85  647.6535
  86  663.3836
  87  594.2301
  88  624.1873
  89  677.2397
  90  631.9857
  91  575.1847
  92  661.3575
  93  745.131
  94  754.4831
  95  710.0769
  96  735.772
  97  668.9718
  98  637.2865
  99  650.3429
 100  609.0046
 101  487.7072
 102  533.626
 103  621.3093
 104  627.2314
 105  504.2768
 106  519.9406
 107  619.1016
 108  572.8494
 109  424.3771
 110  441.1606
 111  552.2527
 112  576.5978
 113  579.545
 114  562.7911
 115  607.8658
 116  617.3644
 117  505.1686
 118  488.2344
 119  523.6934
 120  582.8458
 121  579.9596
 122  591.2605
 123  626.0748
 124  605.4396
 125  563.6238
 126  647.6583
 127  700.2161
 128  663.8265
 129  701.0701
 130  660.9792
 131  611.0358
 132  682.6425
 133  685.277
 134  726.1198
 135  714.3904
 136  696.524
 137  713.0863
 138  740.7946
 139  834.7163
 140  739.0157
 141  773.8261
 142  737.3226
 143  616.2285
 144  650.9052
 145  693.2457
 146  610.4041
 147  628.3988
 148  751.1544
 149  661.9311
 150  565.2568
 151  630.849
 152  641.5247
 153  646.4836
 154  673.4063
 155  635.9318
 156  629.436
 157  577.7112
 158  539.2076
 159  482.1857
 160  564.5972
 161  527.1959
 162  477.2438
 163  509.6844
 164  535.844
 165  514.8159
 166  475.189
 167  482.2478
 168  532.2537
 169  516.3096
 170  474.789
 171  519.813
 172  560.2652
 173  539.138
 174  566.3433
 175  519.7803
 176  450.2793
 177  514.6425
 178  576.3954
 179  482.3078
 180  415.6357
 181  452.9872
 182  372.1822
 183  369.7536
 184  383.7599
 185  416.8135
 186  477.8753
 187  546.8644
 188  563.4755
 189  590.7226
 190  550.723
 191  527.1664
 192  556.1583
 193  508.303
 194  544.1198
 195  513.0281
 196  499.4966
 197  495.6276
 198  491.3697
 199  491.2706
 200  553.2659
 201  591.4545
 202  580.619
 203  590.6777
 204  593.079
 205  580.3941
 206  537.4263
 207  548.7719
 208  610.7323
 209  590.2055
 210  589.4175
 211  653.5631
 212  607.744
 213  616.447
 214  570.3238
 215  629.1346
 216  627.371
 217  664.7574
 218  703.0817
 219  708.4345
 220  669.8106
 221  727.6409
 222  688.4265
 223  675.6522
 224  726.215
 225  746.9944
 226  652.9511
 227  603.6648
 228  703.3287
 229  731.8379
 230  778.7748
 231  800.5264
 232  741.6302
 233  664.7698
 234  717.3395
 235  666.5811
 236  613.7437
 237  632.6024
 238  559.9167
 239  597.4072
 240  679.3645
 241  557.9081
 242  519.7053
 243  491.0182
 244  611.527
 245  575.0841
 246  601.658
 247  660.1949
 248  594.7682
 249  522.1494
 250  612.4592
 251  634.5712
 252  601.5675
 253  646.8788
 254  652.0911
 255  677.5668
 256  644.7947
 257  677.5324
 258  603.3566
 259  617.9484
 260  563.7821
 261  510.2986
 262  593.8934
 263  618.4658
 264  512.1995
 265  488.3573
 266  615.5288
 267  653.2609
 268  621.0449
 269  601.5021
 270  567.7844
 271  566.5676
 272  603.1749
 273  570.4784
 274  633.8851
 275  621.1785
 276  603.8171
 277  626.8996
 278  695.9901
 279  644.3848
 280  589.113
 281  614.6124
 282  665.2817
 283  692.8087
 284  579.3616
 285  630.019
 286  560.6387
 287  594.6191
 288  726.0151
 289  683.2045
 290  514.2015
 291  501.9405
 292  548.7227
 293  552.9434
 294  505.494
 295  569.6127
 296  572.2381
 297  506.334
 298  539.9777
 299  569.2958
 300  560.7736
 301  525.7242
 302  592.0612
 303  609.7612
 304  622.4281
 305  575.7477
 306  579.9197
 307  585.03
 308  654.1281
 309  628.1667
 310  581.5464
 311  604.6564
 312  551.2611
 313  574.2408
 314  554.9441
 315  478.0948
 316  586.6039
 317  635.3222
 318  562.7937
 319  551.4667
 320  625.8917
 321  649.1714
 322  503.0604
 323  432.4828
 324  537.1946
 325  485.1235
 326  632.0498
 327  650.4564
 328  621.2098
 329  670.3499
 330  614.2338
 331  627.7964
 332  595.9554
 333  602.228
 334  701.2047
 335  640.3483
 336  650.3625
 337  588.7008
 338  628.1195
 339  690.559
 340  670.7542
 341  690.6562
 342  674.3819
 343  626.4414
 344  647.5867
 345  647.2014
 346  663.6232
 347  668.2725
 348  670.85
 349  687.0717
 350  654.6171
 351  683.0505
 352  673.2061
 353  651.1729
 354  768.9298
 355  788.9197
 356  711.0659
 357  657.2493
 358  631.8398
 359  718.1766
 360  707.3917
 361  672.8933
 362  680.8949
 363  646.5327
 364  685.9982
 365  600.1547
 366  694.3061
 367  731.9322
 368  671.8235
 369  663.7699
 370  691.2502
 371  715.3169
 372  783.6068
 373  710.3521
 374  685.9656
 375  752.7719
 376  742.9337
 377  655.6425
 378  668.4777
 379  563.881
 380  551.5969
 381  526.5398
 382  618.4333
 383  648.2865
 384  674.7316
 385  636.9396
 386  572.0485
 387  644.8488
 388  728.8485
 389  706.4838
 390  734.3815
 391  772.7169
 392  708.6367
 393  747.4594
 394  724.7763
 395  634.8133
 396  642.3317
 397  708.5955
 398  667.5518
 399  673.7361
 400  663.4565
 401  652.6918
 402  612.7746
 403  705.7731
 404  611.0415
 405  627.2265
 406  731.169
 407  779.7491
 408  791.236
 409  703.4584
 410  736.8906
 411  728.0439
 412  678.7493
 413  740.3276
 414  709.0836
 415  702.4578
 416  725.6641
 417  728.3369
 418  748.4971
 419  763.9626
 420  681.7662
 421  644.4999
 422  622.5341
 423  700.3264
 424  690.4286
 425  633.767
 426  664.3096
 427  633.4991
 428  586.2649
 429  581.0878
 430  624.6644
 431  721.4825
 432  740.5953
 433  709.1924
 434  702.6648
 435  763.2079
 436  701.9976
 437  765.8472
 438  758.4387
 439  588.1584
 440  546.4999
 441  605.2817
 442  696.1422
 443  637.8339
 444  670.2761
 445  636.8672
 446  529.4031
 447  562.4587
 448  578.9805
 449  509.093
 450  519.9288
 451  605.827
 452  620.4773
 453  572.5552
 454  536.7599
 455  555.3692
 456  564.1328
 457  540.339
 458  505.0359
 459  524.3347
 460  529.8557
 461  562.5667
 462  543.2398
 463  560.6671
 464  586.2095
 465  589.3404
 466  601.5505
 467  667.5792
 468  653.3567
 469  630.225
 470  653.6783
 471  570.846
 472  577.6295
 473  607.3389
 474  631.5511
 475  644.8209
 476  529.1078
 477  598.207
 478  575.7708
 479  623.6533
 480  683.1608
 481  698.8706
 482  673.8457
 483  672.7446
 484  651.725
 485  612.3751
 486  705.37
 487  718.1791
 488  739.8983
 489  684.6487
 490  662.362
 491  667.0573
 492  650.0387
 493  654.0778
 494  737.3099
 495  729.7228
 496  665.342
 497  610.9338
 498  639.5303
 499  735.3029
 500  685.0992
 501  660.7912
 502  625.6611
 503  678.0802
 504  723.2444
 505  758.7369
 506  755.4272
 507  766.6227
 508  855.79
 509  948.6286
 510  1036.201
 511  1159.671
