# Input file       =  1208340608.107277_cleaned.dat
# Candidate        =  PSR_0332+5434
# Telescope        =  AR
# Epoch_topo       =  58229.423924852745
# Epoch_bary       =  N/A
# T_sample         =  0.002
# Data Folded      =  7340032
# Data Avg         =  0.21392840569024 
# Data StdDev      =  6.05340829362259 
# Profile Bins     =  256
# Profile Avg      =  6134.47250421191 
# Profile StdDev   =  1025.01202747272 
# Reduced chi-sqr  =  1.308
# Prob(Noise)      <  0.000679   (~3.2 sigma)
# P_topo (ms)      =  714.555028635654  +/- 0.000541
# P'_topo (s/s)    =  -0                +/- 2.86e-10
# P''_topo (s/s^2) =  0                 +/- 1.26e-13
# P_bary (ms)      =  N/A
# P'_bary (s/s)    =  N/A
# P''_bary (s/s^2) =  N/A
# P_orb (s)        =  N/A
# asin(i)/c (s)    =  N/A
# eccentricity     =  N/A
# w (rad)          =  N/A
# T_peri           =  N/A
######################################################
   0  5210.892
   1  5996.628
   2  4833.857
   3  5296.377
   4  5114.919
   5  5236.889
   6  5359.992
   7  4578.38
   8  4622.721
   9  4660.085
  10  4663.517
  11  4504.289
  12  4965.199
  13  4808.65
  14  4324.008
  15  5268.594
  16  5838.614
  17  6225.07
  18  6849.266
  19  6001.644
  20  6705.112
  21  6287.076
  22  5674.924
  23  6527.55
  24  6627.901
  25  7355.085
  26  7128.857
  27  6935.728
  28  7175.016
  29  6873.581
  30  6514.9
  31  6977.808
  32  5767.152
  33  5408.446
  34  5769.926
  35  4802.103
  36  4033.733
  37  3992.068
  38  4704.169
  39  4597.278
  40  4307.684
  41  4604.708
  42  4860.883
  43  4420.632
  44  4467.196
  45  3973.644
  46  4019.874
  47  4954.736
  48  4941.742
  49  4369.719
  50  4365.028
  51  4129.754
  52  4914.489
  53  5613.817
  54  4885.292
  55  5123.496
  56  4886.415
  57  5112.43
  58  5538.293
  59  5019.532
  60  5517.08
  61  5442.007
  62  5469.918
  63  5483.433
  64  5748.135
  65  5391.967
  66  5420.46
  67  5984.93
  68  6464.563
  69  6448.722
  70  6960.146
  71  6058.895
  72  6963.809
  73  6908.661
  74  6117.022
  75  6275.935
  76  6273.798
  77  6867.831
  78  6161.292
  79  6211.775
  80  5803.854
  81  6374.833
  82  6018.63
  83  5744.024
  84  5628.55
  85  5612.857
  86  5648.159
  87  5623.14
  88  5513.782
  89  6151.625
  90  6455.939
  91  6155.824
  92  6443.174
  93  6552.606
  94  6463.589
  95  5705.242
  96  5774.834
  97  5167.655
  98  5410.297
  99  5782.847
 100  6415.146
 101  6361.389
 102  5883.732
 103  6568.606
 104  6336.64
 105  6313.346
 106  6163.507
 107  6416.169
 108  6517.127
 109  6626.662
 110  6559.474
 111  6697.985
 112  7497.474
 113  7110.322
 114  7541.392
 115  7427.52
 116  7660.046
 117  7104.823
 118  7500.263
 119  7299.009
 120  7600.194
 121  6817.468
 122  7560.138
 123  7432.339
 124  6702.129
 125  7414.928
 126  7039.548
 127  6990.212
 128  6805.609
 129  6665.658
 130  6749.039
 131  6554.595
 132  6623.729
 133  6773.181
 134  7686.614
 135  7498.353
 136  6906.643
 137  6673.12
 138  7055.621
 139  7395.902
 140  6986.569
 141  6834.841
 142  6245.578
 143  6517.395
 144  6061.038
 145  6467.517
 146  5505.75
 147  5884.822
 148  6359.62
 149  8162.592
 150  10321.59
 151  9901.541
 152  7195.452
 153  6430.546
 154  6508.374
 155  6733.298
 156  6594.669
 157  6881.545
 158  6755.101
 159  6771.458
 160  6346.399
 161  6881.709
 162  6848.366
 163  6661.638
 164  5902.073
 165  6230.462
 166  7237.019
 167  6681.668
 168  7135.014
 169  7251.463
 170  7042.37
 171  7367.295
 172  7032.283
 173  7222.415
 174  7682.18
 175  7254.71
 176  6640.298
 177  6174.059
 178  6102.689
 179  5767.574
 180  6391.838
 181  6943.641
 182  6048.033
 183  5388.919
 184  5298.973
 185  6263.493
 186  5629.262
 187  4904.713
 188  5227.711
 189  6093.875
 190  4829.761
 191  4659.156
 192  5187.195
 193  5513.905
 194  6013.892
 195  5452.347
 196  5774.492
 197  5549.104
 198  5335.008
 199  6136.91
 200  6603.98
 201  6661.38
 202  6424.817
 203  6268.523
 204  6669.099
 205  6914.589
 206  6904.464
 207  5708.647
 208  6449.742
 209  6727.327
 210  6335.96
 211  5981.332
 212  6319.08
 213  5990.759
 214  6196.996
 215  5296.169
 216  5697.644
 217  5403.603
 218  5407.733
 219  4990.862
 220  5269.407
 221  5007.591
 222  5279.68
 223  5113.37
 224  5182.843
 225  5115.421
 226  5245.667
 227  4942.999
 228  4731.849
 229  4584.589
 230  5064.32
 231  5145.448
 232  4915.707
 233  5613.401
 234  5501.256
 235  5220.892
 236  5914.198
 237  6034.597
 238  6288.621
 239  6972.071
 240  7196.562
 241  7958.724
 242  8130.204
 243  8350.767
 244  8668.273
 245  8393.525
 246  8049.094
 247  7854.062
 248  7972.333
 249  7103.888
 250  7398.213
 251  6838.475
 252  5950.116
 253  6278.439
 254  5429.464
 255  5658.125
