# Input file       =  1208355544.109267_cleaned.dat
# Candidate        =  PSR_0332+5434
# Telescope        =  AR
# Epoch_topo       =  58229.596795246143
# Epoch_bary       =  N/A
# T_sample         =  0.002
# Data Folded      =  7340032
# Data Avg         =  0.208007081171672
# Data StdDev      =  5.50304887076347 
# Profile Bins     =  1024
# Profile Avg      =  1490.9915246933  
# Profile StdDev   =  465.910360469599 
# Reduced chi-sqr  =  1.029
# Prob(Noise)      <  0.254   (~0.7 sigma)
# P_topo (ms)      =  714.555224376912  +/- 0.000264
# P'_topo (s/s)    =  -0                +/- 1.39e-10
# P''_topo (s/s^2) =  0                 +/- 6.14e-14
# P_bary (ms)      =  N/A
# P'_bary (s/s)    =  N/A
# P''_bary (s/s^2) =  N/A
# P_orb (s)        =  N/A
# asin(i)/c (s)    =  N/A
# eccentricity     =  N/A
# w (rad)          =  N/A
# T_peri           =  N/A
######################################################
   0  1275.13
   1  1312.081
   2  1306.876
   3  1175.734
   4  1182.25
   5  1125.278
   6  1057.591
   7  1068.549
   8  1073.369
   9  1169.336
  10  1191.892
  11  1266.288
  12  1203.907
  13  1301.271
  14  1319.915
  15  1460.232
  16  1417.271
  17  1377.618
  18  1268.147
  19  1219.113
  20  1088.087
  21  1111.314
  22  1182.426
  23  1317.261
  24  1446.375
  25  1523.895
  26  1376.963
  27  1377.326
  28  1389.245
  29  1490.547
  30  1517.321
  31  1537.138
  32  1579.136
  33  1580.684
  34  1447.755
  35  1417.67
  36  1305.87
  37  1425.103
  38  1606.072
  39  1665.636
  40  1609.657
  41  1596.926
  42  1668.1
  43  1667.645
  44  1724.193
  45  1774.579
  46  1910.132
  47  1903.868
  48  1835.514
  49  1755.791
  50  1612.033
  51  1588.739
  52  1649.942
  53  1803.414
  54  1769.37
  55  1778.114
  56  1683.461
  57  1697.548
  58  1714.391
  59  1716.646
  60  1710.572
  61  1497.825
  62  1393.494
  63  1444.443
  64  1543.39
  65  1569.151
  66  1608.335
  67  1659.939
  68  1616.3
  69  1528.656
  70  1554.14
  71  1486.039
  72  1504.953
  73  1546.028
  74  1691.192
  75  1532.312
  76  1477.142
  77  1366.218
  78  1358.648
  79  1341.931
  80  1431.714
  81  1511.941
  82  1405.812
  83  1458.067
  84  1372.04
  85  1308.815
  86  1381.992
  87  1346.614
  88  1289.626
  89  1190.144
  90  1342.124
  91  1432.54
  92  1479.049
  93  1374.783
  94  1359.338
  95  1364.434
  96  1401.452
  97  1412.026
  98  1411.884
  99  1429.793
 100  1438.181
 101  1330.482
 102  1253.631
 103  1199.536
 104  1297.183
 105  1181.601
 106  1250.44
 107  1282.421
 108  1357.429
 109  1329.02
 110  1344.167
 111  1395.55
 112  1320.335
 113  1428.765
 114  1477.392
 115  1507.579
 116  1457.748
 117  1266.646
 118  1171.036
 119  987.9619
 120  1081.745
 121  1139.468
 122  1238.881
 123  1348.202
 124  1396.22
 125  1433.095
 126  1362.635
 127  1158.876
 128  1097.952
 129  1137.075
 130  1218.089
 131  1086.505
 132  1156.185
 133  1246.321
 134  1335.182
 135  1180.192
 136  1076.7
 137  1079.13
 138  1210.763
 139  1306.737
 140  1320.952
 141  1223.901
 142  1178.195
 143  1188.976
 144  1210.458
 145  1243.571
 146  1192.067
 147  1184.073
 148  1233.095
 149  1288.914
 150  1351.577
 151  1217.367
 152  1237.162
 153  1331.612
 154  1375.422
 155  1498.599
 156  1514.662
 157  1529.32
 158  1352.818
 159  1316.253
 160  1467.31
 161  1609.901
 162  1679.993
 163  1588.603
 164  1702.813
 165  1749.665
 166  1686.811
 167  1546.855
 168  1512.905
 169  1657.942
 170  1800.545
 171  1847.834
 172  1717.46
 173  1777.959
 174  1710.439
 175  1695.679
 176  1578.314
 177  1590.128
 178  1561.827
 179  1517.961
 180  1490.837
 181  1612.977
 182  1699.597
 183  1733.562
 184  1864.862
 185  1763.888
 186  1756.052
 187  1578.459
 188  1608.069
 189  1530.989
 190  1635.947
 191  1745.996
 192  1881.263
 193  1820.286
 194  1619.286
 195  1555.829
 196  1671.162
 197  1814.174
 198  2046.106
 199  2100.664
 200  2017.192
 201  1791.121
 202  1734.099
 203  1817.713
 204  1845.623
 205  1836.536
 206  1734.193
 207  1873.984
 208  1846.935
 209  1867.061
 210  1764.446
 211  1756.606
 212  1789.678
 213  1707.727
 214  1651.036
 215  1782.802
 216  1810.169
 217  1744.494
 218  1657.46
 219  1697.41
 220  1585.282
 221  1514.067
 222  1415.442
 223  1596.102
 224  1592.696
 225  1670.788
 226  1721.234
 227  1802.929
 228  1845.099
 229  1833.501
 230  1849.021
 231  1798.55
 232  1634.889
 233  1575.914
 234  1610.732
 235  1675.656
 236  1579.854
 237  1488.447
 238  1583.419
 239  1702.989
 240  1772.977
 241  1747.612
 242  1621.762
 243  1726.873
 244  1722.231
 245  1693.918
 246  1588.07
 247  1467.911
 248  1520.345
 249  1489.858
 250  1539.764
 251  1511.869
 252  1393.183
 253  1294.867
 254  1209.3
 255  1266.774
 256  1269.977
 257  1236.005
 258  1274.345
 259  1272.454
 260  1315.315
 261  1334.112
 262  1398.084
 263  1395.61
 264  1306.483
 265  1235.38
 266  1360.25
 267  1419.161
 268  1509.736
 269  1469.727
 270  1546.433
 271  1488.495
 272  1533.122
 273  1499.325
 274  1469.977
 275  1427.802
 276  1523.472
 277  1580.998
 278  1655.169
 279  1640.188
 280  1663.693
 281  1592.249
 282  1591.91
 283  1668.556
 284  1675.239
 285  1584.849
 286  1587.732
 287  1656.297
 288  1574.084
 289  1456.777
 290  1451.688
 291  1533.242
 292  1594.253
 293  1700.41
 294  1749.548
 295  1717.225
 296  1606.442
 297  1464.31
 298  1464.475
 299  1410.37
 300  1501.748
 301  1606.104
 302  1787.578
 303  1832.204
 304  1953.098
 305  2108.613
 306  2042.833
 307  1871.75
 308  1809.676
 309  1896.357
 310  1859.419
 311  1818.208
 312  1717.186
 313  1801.956
 314  1764.93
 315  1815.431
 316  1649.434
 317  1621.251
 318  1450.671
 319  1523.23
 320  1560.621
 321  1507.167
 322  1416.947
 323  1300.481
 324  1272.597
 325  1375.333
 326  1589.049
 327  1716.78
 328  1888.854
 329  1978.287
 330  2154.454
 331  2190.889
 332  1921.207
 333  1772.932
 334  1787.714
 335  1889.053
 336  2007.757
 337  2011.817
 338  1957.519
 339  1991.513
 340  1970.656
 341  1987.368
 342  1879.276
 343  1754.592
 344  1784.676
 345  1904.292
 346  1954.566
 347  1975.063
 348  1726.389
 349  1562.631
 350  1588.297
 351  1628.621
 352  1765.988
 353  1756.346
 354  1696.406
 355  1697.214
 356  1858.134
 357  1884.038
 358  1665.586
 359  1532.579
 360  1555.565
 361  1767.818
 362  1715.75
 363  1579.822
 364  1555.118
 365  1511.654
 366  1501.98
 367  1441.453
 368  1352.704
 369  1263.075
 370  1342.249
 371  1329.023
 372  1429.682
 373  1373.015
 374  1335.949
 375  1302.87
 376  1267.838
 377  1310.541
 378  1388.122
 379  1435.385
 380  1265.535
 381  1016.652
 382  1061.77
 383  1144.119
 384  1167.829
 385  1219.601
 386  1299.886
 387  1261.281
 388  1099.304
 389  1064.563
 390  1109.454
 391  1133.78
 392  1212.369
 393  1219.944
 394  1199.463
 395  1229.638
 396  1301.751
 397  1367.876
 398  1355.191
 399  1291.648
 400  1266.983
 401  1270.582
 402  1279.546
 403  1351.928
 404  1447.447
 405  1542.653
 406  1564.305
 407  1562.657
 408  1538.727
 409  1642.935
 410  1660.728
 411  1660.632
 412  1581.889
 413  1527.533
 414  1551.362
 415  1515.917
 416  1501.974
 417  1316.517
 418  1361.76
 419  1377.41
 420  1349.734
 421  1413.669
 422  1561.656
 423  1521.041
 424  1373.168
 425  1357.624
 426  1266.42
 427  1204.801
 428  1375.472
 429  1518.35
 430  1568.612
 431  1489.627
 432  1464.376
 433  1462.361
 434  1420.893
 435  1383.124
 436  1243.893
 437  1207.987
 438  1210.958
 439  1117.501
 440  1122.236
 441  1135.456
 442  1164.28
 443  1287.959
 444  1452.04
 445  1559.408
 446  1511.205
 447  1388.873
 448  1413.926
 449  1440.903
 450  1429.918
 451  1524.913
 452  1529.989
 453  1558.756
 454  1490.485
 455  1554.927
 456  1619.28
 457  1656.227
 458  1548.446
 459  1343.505
 460  1368.137
 461  1434.639
 462  1440.757
 463  1640.688
 464  1704.133
 465  1789.578
 466  1691.593
 467  1677.173
 468  1693.494
 469  1755.998
 470  1791.21
 471  1827.311
 472  1882.827
 473  1961.958
 474  1936.102
 475  1828.196
 476  1841.366
 477  1884.689
 478  2029.468
 479  2045.528
 480  1988.132
 481  1755.132
 482  1664.265
 483  1553.835
 484  1716.827
 485  1737.562
 486  1802.736
 487  1668.047
 488  1812.243
 489  1825.568
 490  1963.838
 491  1965.168
 492  1761.402
 493  1752.641
 494  1661.886
 495  1747.306
 496  1779.664
 497  1789.849
 498  1757.54
 499  1739.703
 500  1711.723
 501  1539.063
 502  1436.866
 503  1500.338
 504  1522.717
 505  1628.012
 506  1633.898
 507  1629.077
 508  1622.443
 509  1576.131
 510  1575.735
 511  1582.836
 512  1645.712
 513  1724.885
 514  1690.17
 515  1679.855
 516  1642.204
 517  1562.267
 518  1446.745
 519  1414.416
 520  1327.625
 521  1414.917
 522  1489.721
 523  1508.511
 524  1380.762
 525  1347.279
 526  1437.402
 527  1391.327
 528  1418.113
 529  1396.908
 530  1416.298
 531  1264.78
 532  1364.047
 533  1437.35
 534  1323.399
 535  1259.546
 536  1213.134
 537  1273.309
 538  1387.093
 539  1522.756
 540  1452.407
 541  1184.342
 542  1024.893
 543  1104.587
 544  1240.793
 545  1298.007
 546  1293.24
 547  1242.43
 548  1337.793
 549  1462.896
 550  1438.305
 551  1418.629
 552  1354.422
 553  1490.688
 554  1544.352
 555  1494.646
 556  1354.394
 557  1246.69
 558  1282.162
 559  1315.469
 560  1419.428
 561  1430.616
 562  1384.567
 563  1402.398
 564  1353.469
 565  1411.283
 566  1437.372
 567  1638.708
 568  1680.815
 569  1644.009
 570  1613.478
 571  1473.284
 572  1325.738
 573  1245.025
 574  1328.169
 575  1503.046
 576  1479.871
 577  1443.1
 578  1473.247
 579  1510.358
 580  1559.052
 581  1558.523
 582  1600.703
 583  1511.382
 584  1558.434
 585  1529.127
 586  1495.438
 587  1439.867
 588  1450.966
 589  1589.468
 590  1751.815
 591  1845.578
 592  1924.909
 593  1881.162
 594  1894.944
 595  1881.921
 596  1963.326
 597  2027.361
 598  2201.986
 599  2344.648
 600  2537.71
 601  2806.776
 602  2800.222
 603  2698.485
 604  2566.277
 605  2609.726
 606  2425.724
 607  2231.918
 608  1995.208
 609  1976.17
 610  1942.412
 611  2014.582
 612  2037.344
 613  1993.923
 614  1877.068
 615  1890.301
 616  1790.251
 617  1784.195
 618  1769.996
 619  1815.396
 620  1860.877
 621  1927.948
 622  1824.795
 623  1829.526
 624  1725.09
 625  1696.959
 626  1676.262
 627  1803.327
 628  1890.447
 629  1919.134
 630  1854.7
 631  1830.46
 632  1813.041
 633  1838.783
 634  2039.098
 635  1964.565
 636  1928.958
 637  1905.258
 638  1822.702
 639  1629.566
 640  1604.721
 641  1652.287
 642  1657.341
 643  1493.54
 644  1489.472
 645  1546.249
 646  1540.838
 647  1554.361
 648  1702.945
 649  1729.055
 650  1638.011
 651  1586.315
 652  1675.569
 653  1603.334
 654  1451.892
 655  1197.532
 656  1219.161
 657  1156.748
 658  1198.674
 659  1269.275
 660  1460.175
 661  1480.077
 662  1496.839
 663  1408.085
 664  1358.084
 665  1208.053
 666  1250.381
 667  1319.907
 668  1381.625
 669  1346.7
 670  1303.747
 671  1398.212
 672  1524.823
 673  1483.397
 674  1410.698
 675  1372.547
 676  1512.978
 677  1386.784
 678  1218.598
 679  1186.295
 680  1156.565
 681  1287.591
 682  1349.355
 683  1389.956
 684  1502.578
 685  1483.183
 686  1322.876
 687  1114.44
 688  1134.834
 689  1280.504
 690  1299.388
 691  1239.15
 692  1265.673
 693  1391.594
 694  1340.163
 695  1244.968
 696  1099.271
 697  1130
 698  1236.953
 699  1226.767
 700  1142.103
 701  1161.316
 702  1377.136
 703  1397.014
 704  1218.508
 705  1122.985
 706  1202.537
 707  1277.038
 708  1274.701
 709  1273.23
 710  1393.089
 711  1380.984
 712  1451.64
 713  1255.395
 714  1136.186
 715  964.6051
 716  1076.5
 717  1202.438
 718  1185.323
 719  1106.152
 720  1128.242
 721  1114.973
 722  1125.354
 723  1001.319
 724  1078.395
 725  1108.004
 726  1263.037
 727  1296.026
 728  1312.651
 729  1395.99
 730  1415.511
 731  1518.61
 732  1316.547
 733  1264.207
 734  1204.348
 735  1192.303
 736  1336.116
 737  1392.013
 738  1533.01
 739  1486.552
 740  1530.014
 741  1421.661
 742  1327.538
 743  1301.316
 744  1303.06
 745  1320.892
 746  1246.341
 747  1386.559
 748  1519.255
 749  1597.376
 750  1694.32
 751  1537.964
 752  1472.341
 753  1553.167
 754  1654.656
 755  1712.302
 756  1635.774
 757  1710.491
 758  1838.572
 759  1882.377
 760  1720.569
 761  1628.42
 762  1638.142
 763  1570.785
 764  1583.769
 765  1552.71
 766  1675.131
 767  1677.847
 768  1552.459
 769  1641.788
 770  1740.945
 771  1863.647
 772  1853.045
 773  1753.264
 774  1731.787
 775  1779.798
 776  1651.553
 777  1554.282
 778  1577.923
 779  1588.403
 780  1688.497
 781  1620.629
 782  1648.252
 783  1566.274
 784  1468.129
 785  1429.666
 786  1485.162
 787  1477.344
 788  1441.985
 789  1416.036
 790  1377.712
 791  1396.93
 792  1449.947
 793  1469.937
 794  1435.162
 795  1464.812
 796  1421.54
 797  1350.836
 798  1411.548
 799  1510.183
 800  1556.709
 801  1481.258
 802  1464.887
 803  1427.176
 804  1313.113
 805  1247.883
 806  1363.315
 807  1428.431
 808  1347.316
 809  1284.127
 810  1178.621
 811  1227.841
 812  1244.984
 813  1387.049
 814  1506.769
 815  1558.537
 816  1673.279
 817  1495.997
 818  1433.969
 819  1238.715
 820  1192.536
 821  1039.438
 822  1121.837
 823  1218.239
 824  1403.821
 825  1436.252
 826  1465.004
 827  1421.983
 828  1385.282
 829  1367.005
 830  1384.761
 831  1344.727
 832  1388.516
 833  1355.26
 834  1317.451
 835  1198.122
 836  1229.65
 837  1393.732
 838  1340.971
 839  1296.955
 840  1330.437
 841  1423.285
 842  1491.458
 843  1471.887
 844  1580.76
 845  1642.897
 846  1491.491
 847  1385.266
 848  1247.695
 849  1224.591
 850  1322.964
 851  1419.132
 852  1511.974
 853  1448.189
 854  1423.253
 855  1388.649
 856  1378.646
 857  1280.966
 858  1285.149
 859  1299.845
 860  1162.163
 861  1015.333
 862  893.0942
 863  1022.706
 864  1172.835
 865  1206.515
 866  1071.431
 867  956.466
 868  984.941
 869  1133.437
 870  1140.676
 871  1231.162
 872  1170.312
 873  1271.389
 874  1269.729
 875  1309.84
 876  1247.509
 877  1367.088
 878  1311.133
 879  1299.702
 880  1337.138
 881  1480.701
 882  1516.366
 883  1584.708
 884  1556.055
 885  1454.754
 886  1372.389
 887  1403.818
 888  1483.395
 889  1475.269
 890  1428.785
 891  1392.014
 892  1327.307
 893  1378.512
 894  1425.416
 895  1513.292
 896  1497.375
 897  1401.595
 898  1344.225
 899  1380.674
 900  1545.324
 901  1580.662
 902  1661.444
 903  1616.831
 904  1490.589
 905  1359.863
 906  1410.799
 907  1649.108
 908  1615.911
 909  1399.295
 910  1497.656
 911  1546.095
 912  1614.941
 913  1618.668
 914  1573.954
 915  1644.548
 916  1587.117
 917  1649.206
 918  1749.706
 919  1710.837
 920  1732.897
 921  1680.735
 922  1873.437
 923  1829.578
 924  1901.704
 925  1824.267
 926  1655.253
 927  1598.37
 928  1574.556
 929  1704.745
 930  1625.452
 931  1548.576
 932  1770.66
 933  1806.252
 934  1772.43
 935  1720.458
 936  1901.103
 937  1751.13
 938  1823.717
 939  1856.546
 940  1894.298
 941  1765.218
 942  1601.005
 943  1605.064
 944  1555.69
 945  1528.359
 946  1602.793
 947  1581.108
 948  1650.976
 949  1660.206
 950  1690.667
 951  1709.03
 952  1706.899
 953  1745.122
 954  1651.454
 955  1584.94
 956  1460.261
 957  1326.422
 958  1306.555
 959  1245.856
 960  1222.151
 961  1295.122
 962  1365.884
 963  1281.55
 964  1108.544
 965  1081.814
 966  1119.639
 967  1037.026
 968  1120.29
 969  1156.839
 970  1145.319
 971  1046.77
 972  1010.673
 973  1064.113
 974  1213.42
 975  1175.906
 976  1059.187
 977  967.9766
 978  1111.937
 979  1209.427
 980  1144.831
 981  1140.649
 982  1093.493
 983  996.278
 984  933.2072
 985  1085.573
 986  1353.73
 987  1383.155
 988  1410.755
 989  1349.969
 990  1259.872
 991  1173.274
 992  1150.609
 993  1137.974
 994  1123.038
 995  999.6442
 996  1037.353
 997  1063.336
 998  1127.094
 999  1167.874
1000  1133.839
1001  1230.726
1002  1103.844
1003  1060.866
1004  988.9847
1005  1016.706
1006  1085.916
1007  1174.652
1008  1135.798
1009  1058.554
1010  1036.795
1011  1036.546
1012  1168.019
1013  1248.413
1014  1208.091
1015  1106.244
1016  984.713
1017  970.7055
1018  1062.621
1019  1190.861
1020  1192.593
1021  1149.888
1022  1107.36
1023  1182.218
