# Input file       =  1208584535.106913_cleaned.dat
# Candidate        =  PSR_0332+5434
# Telescope        =  AR
# Epoch_topo       =  58232.247154015196
# Epoch_bary       =  N/A
# T_sample         =  0.002
# Data Folded      =  7143424
# Data Avg         =  0.343325055565325
# Data StdDev      =  5.9593222658597  
# Profile Bins     =  512
# Profile Avg      =  4790.00522646824 
# Profile StdDev   =  703.906710514621 
# Reduced chi-sqr  =  1.586
# Prob(Noise)      <  5.75e-16   (~8.0 sigma)
# P_topo (ms)      =  714.552626671264  +/- 2.63e-05
# P'_topo (s/s)    =  -0                +/- 1.43e-11
# P''_topo (s/s^2) =  0                 +/- 6.47e-15
# P_bary (ms)      =  N/A
# P'_bary (s/s)    =  N/A
# P''_bary (s/s^2) =  N/A
# P_orb (s)        =  N/A
# asin(i)/c (s)    =  N/A
# eccentricity     =  N/A
# w (rad)          =  N/A
# T_peri           =  N/A
######################################################
   0  4772.737
   1  4840.564
   2  5565.389
   3  5484.775
   4  5430.101
   5  4628.708
   6  3939.265
   7  3930.89
   8  3611.018
   9  3575.062
  10  4258.452
  11  5290.104
  12  5180.783
  13  4113.262
  14  4282.607
  15  4059.594
  16  3702.791
  17  4090.852
  18  4856.419
  19  5245.13
  20  5549.729
  21  4825.645
  22  3908.791
  23  3404.019
  24  3866.979
  25  3993.201
  26  3809.313
  27  4637.47
  28  4708.2
  29  3901.241
  30  3352.59
  31  3818.352
  32  4006.732
  33  4052.733
  34  4689.91
  35  5261.011
  36  5338.593
  37  4685.5
  38  3804.208
  39  3490.1
  40  3960.19
  41  4341.215
  42  4086.977
  43  4274.33
  44  4901.357
  45  4781.034
  46  4402.052
  47  4118.085
  48  4441.555
  49  4664.753
  50  4808.701
  51  5262.1
  52  5479.58
  53  5242.551
  54  5149.773
  55  4723.039
  56  4897.151
  57  4686.543
  58  4854.823
  59  5128.607
  60  5648.21
  61  6772.23
  62  6900.111
  63  6480.588
  64  6752.567
  65  6487.554
  66  6377.328
  67  6069.989
  68  5938.754
  69  5904.89
  70  5424.311
  71  4954.609
  72  4163.712
  73  4392.467
  74  4675.799
  75  4482.838
  76  5084.333
  77  5785.068
  78  5635.74
  79  4661.456
  80  4521.372
  81  4527.278
  82  4606.652
  83  4725.952
  84  5598.584
  85  6068.72
  86  6176.421
  87  5428.694
  88  4322.005
  89  3815.078
  90  3942.37
  91  3556.698
  92  4008.102
  93  5069.524
  94  5644.585
  95  4994.473
  96  4440.027
  97  3823.403
  98  3786.724
  99  4281.808
 100  4407.82
 101  5125.138
 102  5546.138
 103  5767.282
 104  4727.003
 105  4118.673
 106  4119.907
 107  3903.05
 108  4120.671
 109  4499.117
 110  4961.178
 111  4848.511
 112  4254.141
 113  4197.235
 114  4385.584
 115  4367.174
 116  4357.064
 117  4590.035
 118  4853.357
 119  5524.674
 120  4956.681
 121  4140.408
 122  3770.052
 123  4371.931
 124  4228.678
 125  4133.031
 126  4681.75
 127  4809.782
 128  4449.606
 129  3862.937
 130  4072.832
 131  4523.145
 132  4476.8
 133  4886.145
 134  5305.248
 135  5436.824
 136  5278.77
 137  4791.287
 138  3975.588
 139  4751.752
 140  5179.891
 141  4566.18
 142  4664.84
 143  5508.133
 144  5239.041
 145  4636.313
 146  3700.836
 147  4401.694
 148  4891.663
 149  5107.637
 150  5846.788
 151  5924.915
 152  6310.843
 153  5620.229
 154  4420.153
 155  3926.469
 156  4160.099
 157  4424.806
 158  4213.048
 159  4921.687
 160  5419.653
 161  5187.614
 162  3969.332
 163  3885.436
 164  4475.474
 165  4503.865
 166  5046.458
 167  5460.552
 168  6288.485
 169  5841.896
 170  5044.576
 171  4301.32
 172  4159.284
 173  4255.055
 174  3832.49
 175  4348.906
 176  5289.873
 177  5387.7
 178  4803.026
 179  4674.914
 180  4381.819
 181  4720.782
 182  5061.625
 183  4892.461
 184  5156.947
 185  5426.863
 186  5042.131
 187  4197.721
 188  4127.461
 189  4436.971
 190  3727.671
 191  3863.617
 192  4837.24
 193  5001.837
 194  4569.069
 195  3971.868
 196  4015.486
 197  4515.361
 198  4916.828
 199  4872.083
 200  5160.89
 201  5451.009
 202  5617.884
 203  4935.399
 204  4104.588
 205  4167.99
 206  4007.771
 207  3990.877
 208  4620.691
 209  5254.267
 210  5408.909
 211  4633.764
 212  4605.612
 213  4829.669
 214  4935.77
 215  5067.697
 216  6040.021
 217  6331.408
 218  6334.857
 219  5709.328
 220  4699.626
 221  4192.99
 222  4436.472
 223  4573.985
 224  4600.367
 225  5315.245
 226  6279.307
 227  5163.225
 228  4559.502
 229  4405.07
 230  4490.981
 231  4973.176
 232  5065.538
 233  5828.331
 234  6281.18
 235  6207.382
 236  5439.122
 237  4615.134
 238  4802.782
 239  4783.684
 240  4866.419
 241  5404.318
 242  6262.592
 243  6036.207
 244  5329.158
 245  4590.848
 246  4785.013
 247  4964.09
 248  4885.009
 249  5513.365
 250  6068.325
 251  6586.597
 252  5728.764
 253  4737.324
 254  4446.424
 255  4519.459
 256  4649.735
 257  4670.139
 258  5024.535
 259  4972.07
 260  4653.408
 261  4405.284
 262  4566.262
 263  4707.936
 264  4817.573
 265  5155.217
 266  5648.958
 267  5610.25
 268  5356.647
 269  4802.78
 270  4209.379
 271  4328.687
 272  4676.526
 273  4685.657
 274  4465.118
 275  4728.484
 276  4975.539
 277  4412.951
 278  4606.035
 279  4351.09
 280  4323.426
 281  4949.055
 282  5203.849
 283  5575.493
 284  5146.561
 285  5194.543
 286  4712.958
 287  4566.791
 288  4689.695
 289  4192.435
 290  3727.571
 291  4114.489
 292  4906.121
 293  4866.532
 294  4285.785
 295  4092.807
 296  4645.077
 297  4596.162
 298  5120.083
 299  5115.331
 300  5390.472
 301  5555.537
 302  4597.216
 303  3982.846
 304  3632.682
 305  3857.978
 306  3810.452
 307  4237.011
 308  5115.002
 309  5374.733
 310  4729.79
 311  4514.576
 312  4538.874
 313  4808.531
 314  4912.66
 315  4928.899
 316  5659.576
 317  5863.67
 318  5364.148
 319  4568.902
 320  4179.406
 321  4553.799
 322  4664.513
 323  4844.809
 324  5016.873
 325  5618.064
 326  5000.937
 327  4089.899
 328  3802.324
 329  4187.824
 330  4665.864
 331  4965.507
 332  5474.499
 333  5784.645
 334  5798.212
 335  4852.577
 336  3927.239
 337  4153.582
 338  4382.451
 339  3951.139
 340  4545.141
 341  5608.103
 342  5421.259
 343  4781.658
 344  4515.786
 345  4295.953
 346  4521.026
 347  4976.23
 348  4915.422
 349  5295.588
 350  5615.344
 351  4941.6
 352  4077.403
 353  3841.511
 354  4009.446
 355  4231.033
 356  3884.158
 357  4477.875
 358  4833.193
 359  4889.623
 360  4738.995
 361  4475.89
 362  4319.505
 363  4132.738
 364  4428.152
 365  4860.536
 366  5601.044
 367  5390.161
 368  4943.522
 369  4142.348
 370  4053.088
 371  4280.371
 372  3851.844
 373  4248.374
 374  4828.045
 375  4933.202
 376  4060.884
 377  3788.988
 378  4361.263
 379  4679.26
 380  4864.743
 381  5245.953
 382  5681.805
 383  6156.928
 384  6016.535
 385  4577.566
 386  4030.026
 387  4577.836
 388  4275.55
 389  4342.691
 390  5072.298
 391  5776.223
 392  5308.498
 393  4574.192
 394  4342.027
 395  4405.14
 396  4632.783
 397  5340.116
 398  5430.733
 399  5697.5
 400  5870.4
 401  5208.465
 402  4205.429
 403  4213.225
 404  4210.326
 405  4222.161
 406  4476.351
 407  5088.851
 408  5930.838
 409  5086.468
 410  4554.94
 411  4359.387
 412  4418.644
 413  4936.908
 414  5099.458
 415  5698.374
 416  5997.17
 417  5970.591
 418  4988.997
 419  4576.215
 420  4938.125
 421  4569.518
 422  4041.176
 423  4921.901
 424  5767.576
 425  5634.136
 426  5126.904
 427  4709.899
 428  4907.796
 429  4842.158
 430  4638.475
 431  5200.565
 432  5211.134
 433  5521.417
 434  4874.667
 435  4374.585
 436  4264.752
 437  4213.572
 438  3920.967
 439  3887.857
 440  4743.723
 441  4863.848
 442  5058.288
 443  4471.122
 444  4585.97
 445  4738.848
 446  4285.224
 447  4961.047
 448  5314.771
 449  5699.684
 450  5596.23
 451  4831.585
 452  4287.402
 453  3895.12
 454  4069.799
 455  4065.859
 456  4389.295
 457  4873.279
 458  4683.001
 459  4188.033
 460  3751.236
 461  4095.006
 462  4482.855
 463  4801.053
 464  5089.772
 465  5417.828
 466  5658.991
 467  4953.47
 468  4166.035
 469  4142.934
 470  4849.862
 471  4526.003
 472  4130.231
 473  4848.727
 474  5061.985
 475  4596.596
 476  3852.483
 477  4409.083
 478  4710.784
 479  5021.007
 480  5578.689
 481  5850.504
 482  6176.118
 483  5807.577
 484  5050.111
 485  4292.503
 486  4428.235
 487  4583.435
 488  4414.203
 489  4973.4
 490  5540.27
 491  5197.96
 492  4159.266
 493  4169.972
 494  4663.369
 495  4611.604
 496  4995.087
 497  5400.613
 498  5824.128
 499  5464.741
 500  4948.706
 501  4648.77
 502  4260.142
 503  4877.016
 504  4484.385
 505  4635.935
 506  5396.847
 507  5369.827
 508  4623.443
 509  4608.998
 510  4227.154
 511  4466.082
