# Input file       =  1208786440.114979_cleaned.dat
# Candidate        =  PSR_0332+5434
# Telescope        =  AR
# Epoch_topo       =  58234.584017534478
# Epoch_bary       =  N/A
# T_sample         =  0.002
# Data Folded      =  7340032
# Data Avg         =  0.318804461138955
# Data StdDev      =  6.1667371148165  
# Profile Bins     =  256
# Profile Avg      =  9140.88821396682 
# Profile StdDev   =  1044.20177961705 
# Reduced chi-sqr  =  1.226
# Prob(Noise)      <  0.00793   (~2.4 sigma)
# P_topo (ms)      =  714.550979942225  +/- 0.000678
# P'_topo (s/s)    =  -0                +/- 3.58e-10
# P''_topo (s/s^2) =  0                 +/- 1.58e-13
# P_bary (ms)      =  N/A
# P'_bary (s/s)    =  N/A
# P''_bary (s/s^2) =  N/A
# P_orb (s)        =  N/A
# asin(i)/c (s)    =  N/A
# eccentricity     =  N/A
# w (rad)          =  N/A
# T_peri           =  N/A
######################################################
   0  8433.955
   1  9216.177
   2  8457.189
   3  8809.144
   4  9144.479
   5  8870.06
   6  8170.874
   7  8466.333
   8  8437.193
   9  9658.737
  10  9467.226
  11  9677.296
  12  10949.56
  13  10866.71
  14  10624.88
  15  10316.17
  16  10255.57
  17  10113.3
  18  10509.93
  19  10726.67
  20  10629.15
  21  11181.34
  22  10785.87
  23  9034.962
  24  9371.638
  25  8208.122
  26  8865.652
  27  9103.652
  28  8935.548
  29  9129.023
  30  8677.086
  31  8951.94
  32  8289.502
  33  8633.249
  34  7249.29
  35  7360.579
  36  7830.034
  37  8368.348
  38  8096.635
  39  8369.798
  40  9052.032
  41  9041.221
  42  8840.512
  43  8244.788
  44  9020.501
  45  9068.102
  46  9195.81
  47  9559.692
  48  9981.897
  49  10631.36
  50  9617.347
  51  8789.521
  52  9251.769
  53  9097.219
  54  10056.39
  55  9655.794
  56  8395.116
  57  8830.106
  58  8912.998
  59  8003.299
  60  8221.081
  61  8012.757
  62  8164.804
  63  7258.716
  64  7077.814
  65  8109.243
  66  7849.77
  67  6788.166
  68  7028.729
  69  7283.983
  70  8003.406
  71  7969.555
  72  7704.926
  73  7477.415
  74  7916.046
  75  7442.337
  76  7986.629
  77  7492.822
  78  7662.411
  79  7287.655
  80  7232.935
  81  7035.838
  82  7415.396
  83  6954.707
  84  7901.813
  85  7894.705
  86  7777.301
  87  9657.876
  88  9634.039
  89  9680.313
  90  9483.942
  91  9468.154
  92  9364.206
  93  9532.527
  94  8840.722
  95  8648.491
  96  9038.712
  97  9301.814
  98  9149.222
  99  9656.612
 100  9650.692
 101  9812.276
 102  9303.07
 103  10118.85
 104  9740.338
 105  9760.009
 106  10029.21
 107  10562.93
 108  9666.458
 109  9280.783
 110  10056.89
 111  9836.324
 112  9735.457
 113  9347.49
 114  10175.45
 115  9605.136
 116  9610.975
 117  9995.646
 118  9787.442
 119  9503.733
 120  9899.573
 121  10350.78
 122  11049.21
 123  10158.09
 124  10112.82
 125  10037.88
 126  10586.81
 127  10630.08
 128  10965.56
 129  9974.246
 130  11568.36
 131  10546.28
 132  10222.43
 133  10541.3
 134  9689.868
 135  10196.23
 136  9524.624
 137  9304.4
 138  9435.586
 139  9726.383
 140  9789.629
 141  9323.426
 142  9808.974
 143  10177.89
 144  9592.275
 145  8428.967
 146  9075.729
 147  9877.47
 148  10562.89
 149  11675.43
 150  12598.13
 151  12537.79
 152  9711.104
 153  8020.217
 154  8509.448
 155  7407.075
 156  7853.401
 157  8044.467
 158  8051.952
 159  7808.877
 160  8147.262
 161  7734.924
 162  8980.944
 163  9357.946
 164  8957.366
 165  9051.71
 166  10256.24
 167  9208.664
 168  8753.004
 169  9317.805
 170  9116.009
 171  9418.726
 172  9203.848
 173  9259.801
 174  9843.962
 175  9208.866
 176  8150.376
 177  8720.87
 178  8785.557
 179  8987.618
 180  8460.091
 181  8520.617
 182  8750.529
 183  8221.135
 184  8882.608
 185  9271.086
 186  9304.257
 187  9900.146
 188  9786.805
 189  10407.55
 190  10258.71
 191  9503.073
 192  10110.9
 193  9791.85
 194  9614.829
 195  10252.57
 196  10208.35
 197  10334.17
 198  10860.51
 199  10391.81
 200  10114.04
 201  10072.04
 202  8846.541
 203  9016.152
 204  9107.454
 205  9052.081
 206  9852.844
 207  9476.113
 208  9974.146
 209  9149.826
 210  9472.508
 211  9274.525
 212  8571.232
 213  8025.838
 214  8413.042
 215  9052.02
 216  9012.597
 217  8222.079
 218  8153.161
 219  8484.997
 220  8122.595
 221  7945.078
 222  7803.497
 223  8374.687
 224  8923.686
 225  8982.011
 226  8581.449
 227  8951.28
 228  7982.596
 229  9413.154
 230  9208.482
 231  9693.808
 232  9121.529
 233  10507.26
 234  10107.38
 235  9701.031
 236  8912.216
 237  8965.832
 238  9608.862
 239  9279.777
 240  8312.627
 241  7944.744
 242  7876.741
 243  7384.773
 244  8154.87
 245  8907.455
 246  8903.97
 247  8250.682
 248  9418.327
 249  8964.002
 250  8661.604
 251  9160.204
 252  9550.942
 253  9404.336
 254  9045.964
 255  8452.856
