# Input file       =  1208943319.116623_cleaned.dat
# Candidate        =  PSR_0332+5434
# Telescope        =  AR
# Epoch_topo       =  58236.399746720170
# Epoch_bary       =  N/A
# T_sample         =  0.002
# Data Folded      =  7340032
# Data Avg         =  0.25245507908195 
# Data StdDev      =  5.74384918076479 
# Profile Bins     =  1024
# Profile Avg      =  1809.61145467238 
# Profile StdDev   =  486.297488018103 
# Reduced chi-sqr  =  0.835
# Prob(Noise)      <  1   (~0.0 sigma)
# P_topo (ms)      =  714.549044188492  +/- 0.000416
# P'_topo (s/s)    =  -0                +/- 2.2e-10
# P''_topo (s/s^2) =  0                 +/- 9.69e-14
# P_bary (ms)      =  N/A
# P'_bary (s/s)    =  N/A
# P''_bary (s/s^2) =  N/A
# P_orb (s)        =  N/A
# asin(i)/c (s)    =  N/A
# eccentricity     =  N/A
# w (rad)          =  N/A
# T_peri           =  N/A
######################################################
   0  1824.483
   1  1782.616
   2  1704.054
   3  1734.644
   4  1720.304
   5  1603.565
   6  1523.825
   7  1567.643
   8  1697.64
   9  1697.413
  10  1744.67
  11  1699.276
  12  1780.459
  13  1855.27
  14  1930.123
  15  1972.026
  16  2004.493
  17  2005.757
  18  1878.147
  19  1845.392
  20  1941.59
  21  1949.282
  22  1892.926
  23  1804.157
  24  1821.894
  25  1885.736
  26  1991.661
  27  1993.306
  28  2010.066
  29  1951.228
  30  1899.854
  31  1722.434
  32  1673.004
  33  1645.077
  34  1872.932
  35  2021.228
  36  2062.377
  37  2001.952
  38  2087.339
  39  2119.671
  40  2175.509
  41  2165.976
  42  2075.492
  43  1883.444
  44  1815.506
  45  1846.619
  46  1923.216
  47  2011.963
  48  1905.611
  49  1823.922
  50  1759.688
  51  1774.628
  52  1764.466
  53  1838.191
  54  1707.901
  55  1636.792
  56  1619.885
  57  1822.577
  58  1889.12
  59  1699.992
  60  1617.613
  61  1468.721
  62  1470.856
  63  1432.672
  64  1428.121
  65  1598.999
  66  1672.587
  67  1702.12
  68  1598.313
  69  1644.286
  70  1682.919
  71  1805.347
  72  1855.012
  73  1794.835
  74  1675.899
  75  1564.771
  76  1470.301
  77  1506.805
  78  1673.418
  79  1807.057
  80  1837.697
  81  1634.009
  82  1607.677
  83  1673.868
  84  1715.803
  85  1711.297
  86  1708.553
  87  1834.352
  88  1854.311
  89  1730.89
  90  1639.473
  91  1661.138
  92  1764.266
  93  1733.582
  94  1668.138
  95  1526.111
  96  1511.599
  97  1592.671
  98  1553.252
  99  1390.875
 100  1302.021
 101  1366.84
 102  1508.942
 103  1497.222
 104  1597.296
 105  1583.074
 106  1564.89
 107  1381.07
 108  1437.461
 109  1574.756
 110  1749.593
 111  1850.71
 112  1865.691
 113  1937.324
 114  1876.247
 115  1867.279
 116  1820.992
 117  1800.891
 118  1716.077
 119  1706.09
 120  1660.244
 121  1663.176
 122  1775.505
 123  1824.042
 124  1796.444
 125  1682.736
 126  1819.47
 127  1916.644
 128  1882.123
 129  1832.732
 130  1805.438
 131  1888.186
 132  1896.188
 133  1919.033
 134  1971.198
 135  2005.395
 136  1976.409
 137  1949.323
 138  1831.874
 139  1862.757
 140  1823.687
 141  1804.993
 142  1885.228
 143  1982.606
 144  2054.251
 145  1968.658
 146  1859.291
 147  1908.268
 148  1985.55
 149  1955.117
 150  1831.806
 151  1761.282
 152  1858.754
 153  1942.778
 154  2098.817
 155  2130.007
 156  2047.374
 157  1896.132
 158  1631.975
 159  1498.426
 160  1488.626
 161  1573.423
 162  1629.399
 163  1670.37
 164  1640.369
 165  1618.39
 166  1535.836
 167  1514.639
 168  1667.011
 169  1649.995
 170  1705.445
 171  1642.435
 172  1537.377
 173  1470.272
 174  1470.78
 175  1613.386
 176  1612.065
 177  1561.929
 178  1602.941
 179  1540.965
 180  1483.412
 181  1520.822
 182  1686.708
 183  1782.833
 184  1756.549
 185  1752.068
 186  1679.714
 187  1665.106
 188  1657.874
 189  1606.745
 190  1645.021
 191  1595.892
 192  1572.302
 193  1652.667
 194  1720.892
 195  1861.862
 196  1811.313
 197  1766.148
 198  1755.42
 199  1752.836
 200  1801.061
 201  1721.828
 202  1634.376
 203  1593.921
 204  1649.606
 205  1657.196
 206  1664.855
 207  1430.953
 208  1284.018
 209  1296.164
 210  1554.384
 211  1746.659
 212  1850.051
 213  1750.248
 214  1694.303
 215  1586.173
 216  1633.431
 217  1646.472
 218  1716.23
 219  1845.258
 220  1947.372
 221  1910.759
 222  1695.15
 223  1383.114
 224  1316.829
 225  1381.085
 226  1561.597
 227  1585.498
 228  1480.897
 229  1532.047
 230  1748.166
 231  1905.129
 232  1896.455
 233  1787.283
 234  1756.434
 235  1940.753
 236  2033.945
 237  2057.489
 238  1968.971
 239  1900.369
 240  1880.235
 241  1946.586
 242  1933.5
 243  1748.416
 244  1729.158
 245  1855.468
 246  2053.517
 247  1911.787
 248  1856.962
 249  1882.292
 250  1985.47
 251  1973.078
 252  1897.478
 253  1745.502
 254  1812.202
 255  1853.61
 256  1931.191
 257  1994.186
 258  1973.316
 259  1977.651
 260  2013.456
 261  2055.24
 262  1995.87
 263  1911.223
 264  1850.817
 265  1856.106
 266  1931.892
 267  1964.362
 268  2022.497
 269  2016.941
 270  2018.544
 271  2060.118
 272  2099.283
 273  1981.732
 274  1989.016
 275  1988.375
 276  2041.808
 277  2082.795
 278  2056.632
 279  2047.347
 280  2013.51
 281  2079.065
 282  2076.654
 283  1972.908
 284  1970.388
 285  2039.962
 286  2160.3
 287  2271.165
 288  2261.713
 289  2203.059
 290  2113.455
 291  2077.86
 292  1931.401
 293  1903.557
 294  1812.539
 295  1951.973
 296  1963.47
 297  2088.823
 298  2073.03
 299  1993.469
 300  1967.223
 301  1925.264
 302  1891.957
 303  1894.919
 304  1883.653
 305  1853.227
 306  1941.952
 307  1885.108
 308  1771.599
 309  1684.614
 310  1918.921
 311  2149.224
 312  2136.08
 313  2004.307
 314  1987.535
 315  1995.147
 316  1955.308
 317  1886.242
 318  1986.772
 319  1952.971
 320  2052.023
 321  2109.771
 322  2203.54
 323  2151.049
 324  2002.425
 325  1977.675
 326  1871.544
 327  1911.244
 328  2020.702
 329  2141.827
 330  2180.074
 331  2012.107
 332  1873.759
 333  1762.122
 334  1870.442
 335  1735.826
 336  1714.322
 337  1598.791
 338  1693.853
 339  1611.577
 340  1551.163
 341  1586.745
 342  1732.474
 343  1785.687
 344  1772.067
 345  1789.949
 346  1761.485
 347  1863.416
 348  1793.488
 349  1746.179
 350  1617.308
 351  1648.88
 352  1820.933
 353  1851.937
 354  2050.47
 355  1959.463
 356  1915.074
 357  1843.027
 358  1824.83
 359  1890.878
 360  1930.61
 361  1930.031
 362  1854.669
 363  1854.285
 364  1952.606
 365  1963.718
 366  1916.57
 367  1792.014
 368  1695.561
 369  1626.758
 370  1559.181
 371  1695.765
 372  1740.925
 373  1777.291
 374  1680.463
 375  1685.232
 376  1723.189
 377  1766.459
 378  1700.727
 379  1634.065
 380  1697.76
 381  1638.521
 382  1526.259
 383  1610.732
 384  1705.433
 385  1779.781
 386  1636.016
 387  1531.926
 388  1525.618
 389  1685.096
 390  1765.829
 391  1839.492
 392  1854.317
 393  1930.19
 394  1998.963
 395  1906.792
 396  1843.289
 397  1805.666
 398  1809.783
 399  1964.123
 400  1914.565
 401  1967.712
 402  1830.8
 403  1940.816
 404  1955.955
 405  1966.422
 406  1898.069
 407  1967.054
 408  1858.741
 409  1962.702
 410  1919.479
 411  1987.509
 412  1884.402
 413  2054.535
 414  2057.328
 415  2103.686
 416  2112.249
 417  2173.748
 418  2015.893
 419  1884.819
 420  1860.378
 421  1841.945
 422  1771.534
 423  1737.248
 424  1846.602
 425  2043.583
 426  1952.007
 427  1839.051
 428  1764.749
 429  1815.449
 430  1885.156
 431  1798.392
 432  1795.311
 433  1716.612
 434  1718.959
 435  1655.415
 436  1617.467
 437  1662.808
 438  1633.711
 439  1768.481
 440  1898.792
 441  1947.334
 442  1937.198
 443  1995.819
 444  1941.559
 445  1843.638
 446  1784.316
 447  1892.35
 448  1916.642
 449  1852.352
 450  1761.043
 451  1920.28
 452  2002.348
 453  2078.475
 454  2067.696
 455  2018.559
 456  1812.54
 457  1654.481
 458  1597.406
 459  1625.235
 460  1678.895
 461  1720.728
 462  1839.132
 463  1854.438
 464  1821.784
 465  1794.548
 466  1848.575
 467  1912.605
 468  1816.48
 469  1652.88
 470  1550.318
 471  1473.509
 472  1608.778
 473  1695.386
 474  1776.53
 475  1654.434
 476  1507.591
 477  1503.957
 478  1550.389
 479  1607.345
 480  1716.266
 481  1846.242
 482  1845.284
 483  1810.365
 484  1749.489
 485  1666.396
 486  1570.755
 487  1541.607
 488  1590.003
 489  1606.329
 490  1585.52
 491  1551.241
 492  1551.047
 493  1524.987
 494  1511.498
 495  1522.879
 496  1532.99
 497  1528.54
 498  1465.235
 499  1501.822
 500  1519.281
 501  1608.336
 502  1559.169
 503  1524.378
 504  1497.497
 505  1536.97
 506  1596.986
 507  1670.904
 508  1695.682
 509  1726.103
 510  1757.788
 511  1753.228
 512  1818.944
 513  1895.103
 514  1872.685
 515  1833.656
 516  1793.529
 517  1801.45
 518  1789.966
 519  1741.281
 520  1631.601
 521  1587.446
 522  1588.301
 523  1689.04
 524  1760.067
 525  1725.019
 526  1781.055
 527  1876.36
 528  1969.481
 529  1783.975
 530  1693.482
 531  1698.549
 532  1810.716
 533  1782.53
 534  1698.137
 535  1660.519
 536  1763.937
 537  1881.595
 538  1927.373
 539  1839.511
 540  1832.422
 541  1942.849
 542  1955.503
 543  1886.037
 544  1943.476
 545  2000.235
 546  1968.307
 547  1787.248
 548  1740.523
 549  1813.818
 550  1967.852
 551  2060.479
 552  2062.146
 553  2029.383
 554  2073.993
 555  2095.333
 556  2036.528
 557  1910.989
 558  1942.206
 559  1999.144
 560  1993.047
 561  1942.713
 562  1845.793
 563  1801.715
 564  1803.101
 565  1902.529
 566  2021.129
 567  2068.819
 568  2056.917
 569  1987.698
 570  1842.45
 571  1816.931
 572  1717.133
 573  1746.943
 574  1740.765
 575  1816.995
 576  1892.521
 577  1972.386
 578  1885.781
 579  1784.896
 580  1768.182
 581  1827.459
 582  1832.117
 583  1837.004
 584  1832.647
 585  1977.084
 586  1978.801
 587  1990.161
 588  2030.272
 589  2118.286
 590  2144.647
 591  2036.715
 592  1990.514
 593  2087.502
 594  2176.789
 595  2267.777
 596  2359.969
 597  2394.936
 598  2480.786
 599  2629.997
 600  2868.904
 601  2994.325
 602  3070.807
 603  3122.784
 604  3031.135
 605  2898.537
 606  2663.656
 607  2446.847
 608  2139.35
 609  2030.296
 610  1942.038
 611  1947.9
 612  1845.87
 613  1794.604
 614  1847.291
 615  1795.628
 616  1780.952
 617  1903.354
 618  2082.953
 619  2087.213
 620  2027.079
 621  1972.778
 622  1825.516
 623  1640.259
 624  1733.538
 625  1681.619
 626  1697.696
 627  1737.144
 628  1753.847
 629  1730.073
 630  1762.631
 631  1835.122
 632  1950.487
 633  1976.512
 634  2143.909
 635  2024.215
 636  1814.929
 637  1675.894
 638  1672.129
 639  1655.15
 640  1521.738
 641  1547.068
 642  1590.343
 643  1713.936
 644  1789.429
 645  1954.647
 646  1838.361
 647  1836.269
 648  1835.283
 649  1932.073
 650  1862.004
 651  1715.102
 652  1682.504
 653  1757.789
 654  1934.864
 655  1838.326
 656  1774.83
 657  1688.17
 658  1694.528
 659  1700.107
 660  1892.175
 661  1895.497
 662  1813.324
 663  1733.969
 664  1878.929
 665  2006.558
 666  2020.611
 667  1951.333
 668  1933.842
 669  1966.811
 670  1946.221
 671  1855.041
 672  1829.994
 673  1795.901
 674  1898.565
 675  2079.069
 676  2271.04
 677  2136.354
 678  1994.14
 679  1901.144
 680  1949.952
 681  1952.149
 682  1949.911
 683  1919.794
 684  1959.187
 685  2074.414
 686  2131.856
 687  2059.306
 688  1956.333
 689  2063.14
 690  2043.685
 691  1977.338
 692  1870.389
 693  1985.861
 694  2095.731
 695  2043.531
 696  1961.405
 697  1997.988
 698  2039.339
 699  1907.561
 700  1880.382
 701  1909.407
 702  1997.268
 703  1892.067
 704  1926.167
 705  1830.448
 706  1772.591
 707  1821.974
 708  1957.522
 709  1925.426
 710  1830.82
 711  1843.503
 712  2069.396
 713  2087.5
 714  2033.025
 715  2029.561
 716  2127.507
 717  2273.561
 718  2248.941
 719  2138.691
 720  2040.337
 721  2016.269
 722  2042.659
 723  2072.498
 724  2076.428
 725  2143.28
 726  2028.87
 727  1971.993
 728  2000.078
 729  2114.968
 730  2222.276
 731  2201.008
 732  2223.03
 733  2200.43
 734  2256.182
 735  2212.853
 736  2297.283
 737  2450.424
 738  2470.215
 739  2367.951
 740  2230.92
 741  2240.34
 742  2178.388
 743  2208.244
 744  2223.787
 745  2218.566
 746  2137.498
 747  2032.042
 748  2120.861
 749  2260.979
 750  2287.304
 751  2284.492
 752  2208.435
 753  2263.532
 754  2260.665
 755  2237.189
 756  2170.609
 757  2074.382
 758  2081.335
 759  2145.505
 760  2094.787
 761  2066.942
 762  1999.251
 763  1888.486
 764  1781.07
 765  1668.107
 766  1702.702
 767  1608.425
 768  1638.275
 769  1699.204
 770  1757.856
 771  1769.51
 772  1810.538
 773  1999.283
 774  2084.521
 775  1981.684
 776  1805.591
 777  1749.751
 778  1828.598
 779  1877.771
 780  1897.615
 781  1912.388
 782  1871.271
 783  1743.615
 784  1667.389
 785  1750.656
 786  1898.5
 787  2043.599
 788  2120.347
 789  2077.854
 790  2124.887
 791  2117.593
 792  2001.652
 793  1944.286
 794  1927.677
 795  1870.548
 796  1769.683
 797  1678.458
 798  1745.93
 799  1725.571
 800  1802.008
 801  1746.715
 802  1672.533
 803  1554.257
 804  1441.616
 805  1367.875
 806  1386.138
 807  1456.542
 808  1522.456
 809  1637.318
 810  1634.203
 811  1615.976
 812  1462.831
 813  1481.252
 814  1498.572
 815  1573.083
 816  1690.498
 817  1744.042
 818  1669.062
 819  1447.344
 820  1310.828
 821  1232.155
 822  1244.769
 823  1439.519
 824  1557.253
 825  1612.686
 826  1664.764
 827  1754.306
 828  1765.299
 829  1733.011
 830  1682.812
 831  1668.28
 832  1782.511
 833  1731.662
 834  1789.809
 835  1667.861
 836  1538.151
 837  1484.159
 838  1451.53
 839  1410.937
 840  1453.034
 841  1481.477
 842  1562.422
 843  1612.987
 844  1617.937
 845  1627.496
 846  1626.197
 847  1671.194
 848  1743.721
 849  1740.079
 850  1780.344
 851  1712.71
 852  1653.519
 853  1662.849
 854  1800.79
 855  1904.549
 856  1988.833
 857  1861.088
 858  1784.522
 859  1773.165
 860  1826.02
 861  1954.584
 862  1928.772
 863  1811.971
 864  1662.723
 865  1779.816
 866  1857.36
 867  1895.254
 868  1863.045
 869  2031.063
 870  2125.998
 871  2116.846
 872  2058.177
 873  2074.253
 874  2094.88
 875  2044.854
 876  2113.591
 877  2099.978
 878  2141.828
 879  2180.185
 880  2282.697
 881  2318.86
 882  2171.931
 883  2057.959
 884  2136.822
 885  2281.482
 886  2209.923
 887  2033.008
 888  1907.923
 889  1888.802
 890  1867.748
 891  2007.009
 892  2042.671
 893  2043.712
 894  1900.074
 895  1827.498
 896  1761.699
 897  1910.198
 898  2036.11
 899  2195.15
 900  2042.427
 901  1875.253
 902  1797.439
 903  1796.219
 904  1918.561
 905  1903.035
 906  1935.502
 907  1893.137
 908  1972.354
 909  2073.635
 910  2085.187
 911  2026.554
 912  1913.717
 913  1888.047
 914  1840.123
 915  1860.505
 916  1761.919
 917  1698.056
 918  1683.884
 919  1577.955
 920  1547.177
 921  1563.802
 922  1671.873
 923  1676.818
 924  1707.252
 925  1622.789
 926  1545.437
 927  1508.838
 928  1469.69
 929  1592.09
 930  1564.824
 931  1602.188
 932  1549.158
 933  1522.657
 934  1417.953
 935  1508.73
 936  1510.274
 937  1472.341
 938  1476.402
 939  1536.397
 940  1514.26
 941  1406.359
 942  1329.556
 943  1378.716
 944  1393.62
 945  1534.926
 946  1570.678
 947  1553.393
 948  1555
 949  1546.86
 950  1579.483
 951  1538.428
 952  1462.742
 953  1315.137
 954  1236.639
 955  1302.681
 956  1457.911
 957  1504.593
 958  1622.415
 959  1739.508
 960  1586.61
 961  1323.729
 962  1227.98
 963  1346.357
 964  1352.244
 965  1250.318
 966  1127.379
 967  1107.361
 968  1076.01
 969  1128.649
 970  1157.337
 971  1197.232
 972  1182.768
 973  1256.372
 974  1325.971
 975  1393.002
 976  1474.635
 977  1547.515
 978  1522.943
 979  1487.531
 980  1514.356
 981  1513.359
 982  1404.72
 983  1311.367
 984  1254.751
 985  1395.164
 986  1457.38
 987  1368.335
 988  1285.252
 989  1375.312
 990  1502.339
 991  1395.211
 992  1328.915
 993  1337.075
 994  1397.944
 995  1488.416
 996  1435.648
 997  1405.032
 998  1357.085
 999  1406.378
1000  1364.479
1001  1333.727
1002  1417.19
1003  1595.505
1004  1653.444
1005  1556.14
1006  1594.632
1007  1595.219
1008  1666.443
1009  1605.931
1010  1681.652
1011  1613.22
1012  1667.902
1013  1681.596
1014  1708.734
1015  1617.8
1016  1597.27
1017  1700.576
1018  1680.333
1019  1732.22
1020  1643.24
1021  1656.986
1022  1568.449
1023  1711.875
