# Input file       =  1208700228.101068_cleaned.dat
# Candidate        =  PSR_0332+5434
# Telescope        =  AR
# Epoch_topo       =  58233.586193299401
# Epoch_bary       =  N/A
# T_sample         =  0.002
# Data Folded      =  7340032
# Data Avg         =  0.042091965508998
# Data StdDev      =  1.00008428433663 
# Profile Bins     =  512
# Profile Avg      =  603.325001806173 
# Profile StdDev   =  119.74312799631  
# Reduced chi-sqr  =  1.396
# Prob(Noise)      <  7.32e-09   (~5.7 sigma)
# P_topo (ms)      =  714.551841661889  +/- 0.000248
# P'_topo (s/s)    =  -0                +/- 1.31e-10
# P''_topo (s/s^2) =  0                 +/- 5.77e-14
# P_bary (ms)      =  N/A
# P'_bary (s/s)    =  N/A
# P''_bary (s/s^2) =  N/A
# P_orb (s)        =  N/A
# asin(i)/c (s)    =  N/A
# eccentricity     =  N/A
# w (rad)          =  N/A
# T_peri           =  N/A
######################################################
   0  1221.858
   1  1127.244
   2  850.633
   3  774.048
   4  639.2146
   5  647.4645
   6  638.387
   7  695.0185
   8  711.307
   9  703.1813
  10  648.0375
  11  637.6592
  12  632.8029
  13  629.0209
  14  704.666
  15  727.1151
  16  697.4259
  17  626.1785
  18  565.3419
  19  544.2523
  20  538.8731
  21  483.7503
  22  712.7604
  23  574.8217
  24  638.164
  25  681.3846
  26  637.8571
  27  682.4606
  28  605.8452
  29  477.8468
  30  546.0266
  31  589.6088
  32  718.6609
  33  631.415
  34  496.1703
  35  536.4531
  36  628.4727
  37  547.2094
  38  531.1533
  39  598.5899
  40  582.2268
  41  572.6057
  42  497.9771
  43  564.0656
  44  672.4942
  45  602.8491
  46  544.5312
  47  517.8802
  48  510.7915
  49  513.4751
  50  453.2243
  51  532.5368
  52  631.8134
  53  642.2061
  54  586.1679
  55  511.7814
  56  524.4609
  57  493.7469
  58  474.8494
  59  511.6527
  60  513.202
  61  623.2981
  62  576.9515
  63  637.002
  64  560.6278
  65  564.3483
  66  482.9909
  67  543.0471
  68  624.6885
  69  469.6319
  70  550.5084
  71  573.4783
  72  436.8001
  73  545.5847
  74  576.9617
  75  443.8482
  76  450.2772
  77  403.449
  78  500.319
  79  520.8424
  80  559.7068
  81  512.5717
  82  482.7878
  83  579.6308
  84  649.3356
  85  648.2709
  86  637.4293
  87  563.0604
  88  596.0687
  89  539.1945
  90  440.3989
  91  451.7654
  92  362.4167
  93  487.5263
  94  578.1373
  95  565.4266
  96  459.7694
  97  477.0926
  98  555.7523
  99  580.17
 100  549.7861
 101  499.4091
 102  524.4154
 103  579.6929
 104  616.4856
 105  574.1671
 106  663.5164
 107  615.7191
 108  676.0412
 109  608.0714
 110  600.1165
 111  586.9249
 112  544.0965
 113  598.9201
 114  617.2994
 115  551.8652
 116  563.016
 117  532.5422
 118  585.7231
 119  577.2796
 120  654.6265
 121  725.2685
 122  609.549
 123  558.5209
 124  514.1491
 125  532.3903
 126  724.9236
 127  672.0288
 128  642.0192
 129  630.7111
 130  539.007
 131  533.8495
 132  613.6865
 133  592.4846
 134  603.3514
 135  499.0983
 136  487.1927
 137  461.2408
 138  482.7784
 139  463.137
 140  506.0056
 141  629.9618
 142  553.7595
 143  431.8059
 144  536.1467
 145  601.1773
 146  663.0245
 147  714.6765
 148  713.8282
 149  774.5045
 150  751.6686
 151  719.624
 152  610.3552
 153  648.0532
 154  674.8823
 155  668.9041
 156  628.3896
 157  698.9755
 158  593.3255
 159  533.7529
 160  556.7907
 161  572.2883
 162  566.0657
 163  591.5895
 164  634.629
 165  591.2313
 166  465.3712
 167  458.7761
 168  583.7764
 169  632.4677
 170  621.4716
 171  565.2335
 172  548.3854
 173  550.3207
 174  541.5273
 175  540.2093
 176  508.3327
 177  514.3275
 178  439.4527
 179  490.9089
 180  514.0085
 181  525.1167
 182  535.4897
 183  482.5909
 184  503.0839
 185  467.0082
 186  539.2149
 187  538.2004
 188  613.5656
 189  543.2433
 190  520.8788
 191  603.5209
 192  574.3579
 193  505.6758
 194  417.2982
 195  480.9753
 196  483.2238
 197  574.1045
 198  656.2971
 199  575.8766
 200  480.9248
 201  592.4479
 202  514.1782
 203  613.1731
 204  545.7815
 205  527.0864
 206  501.9065
 207  467.2418
 208  453.5699
 209  460.976
 210  517.1553
 211  546.5444
 212  513.2782
 213  576.4242
 214  636.4932
 215  627.8698
 216  623.6641
 217  625.5069
 218  660.4986
 219  637.7064
 220  648.5547
 221  565.6889
 222  526.4232
 223  486.6773
 224  590.0588
 225  570.5356
 226  588.5814
 227  620.1148
 228  486.6672
 229  519.1151
 230  638.7377
 231  511.2001
 232  515.3641
 233  650.678
 234  626.3569
 235  656.7332
 236  715.3458
 237  596.064
 238  544.4278
 239  602.8265
 240  601.8885
 241  589.1109
 242  533.9138
 243  548.3378
 244  543.8047
 245  568.0464
 246  544.9703
 247  537.9966
 248  590.4502
 249  588.9465
 250  543.0299
 251  450.0939
 252  474.4073
 253  449.3778
 254  405.6932
 255  546.5405
 256  598.5967
 257  567.4741
 258  562.078
 259  620.6428
 260  514.3522
 261  517.3532
 262  515.4236
 263  567.3256
 264  539.252
 265  559.4573
 266  567.1981
 267  501.2154
 268  668.2435
 269  554.0327
 270  545.3172
 271  569.7278
 272  542.5078
 273  547.6679
 274  548.4423
 275  451.2824
 276  496.6691
 277  577.7809
 278  532.3606
 279  531.3626
 280  600.9049
 281  521.6899
 282  520.7623
 283  516.8743
 284  628.8849
 285  696.848
 286  638.0819
 287  628.2596
 288  526.6873
 289  601.3535
 290  652.2533
 291  610.8391
 292  640.267
 293  596.2781
 294  549.987
 295  549.618
 296  609.0646
 297  481.9422
 298  631.3627
 299  632.0175
 300  590.1007
 301  680.9487
 302  764.3347
 303  661.0566
 304  705.451
 305  710.2479
 306  756.3528
 307  826.6193
 308  757.3517
 309  703.316
 310  721.8229
 311  815.6729
 312  742.3789
 313  680.4623
 314  684.5792
 315  674.033
 316  580.7701
 317  478.8375
 318  574.3518
 319  499.6889
 320  587.5408
 321  706.613
 322  690.01
 323  697.7641
 324  657.6584
 325  591.3464
 326  641.4359
 327  615.4385
 328  652.4886
 329  690.6399
 330  734.5382
 331  690.9494
 332  615.2858
 333  776.1755
 334  819.8263
 335  827.8664
 336  841.2488
 337  702.8034
 338  653.5677
 339  645.0975
 340  773.563
 341  737.5641
 342  676.4468
 343  690.8524
 344  648.4678
 345  666.7877
 346  538.2462
 347  467.9438
 348  630.407
 349  670.9813
 350  710.4373
 351  706.9246
 352  687.1531
 353  728.4503
 354  692.7037
 355  656.9054
 356  696.9673
 357  608.7437
 358  591.2614
 359  580.7968
 360  571.7086
 361  614.7786
 362  526.8478
 363  654.8829
 364  663.1031
 365  683.0592
 366  624.1812
 367  639.0444
 368  700.0804
 369  813.3688
 370  730.3923
 371  690.6972
 372  681.6229
 373  732.2908
 374  709.6802
 375  770.9882
 376  710.3879
 377  637.9731
 378  611.782
 379  557.9221
 380  510.2506
 381  607.5951
 382  585.105
 383  575.0367
 384  563.176
 385  621.2498
 386  573.579
 387  635.7507
 388  666.4582
 389  586.582
 390  585.3943
 391  629.2404
 392  648.8307
 393  715.6896
 394  691.6309
 395  581.0318
 396  650.8166
 397  720.8102
 398  676.793
 399  694.451
 400  730.3292
 401  612.2053
 402  652.395
 403  620.2124
 404  396.1093
 405  411.1087
 406  580.5871
 407  600.437
 408  612.7412
 409  683.7368
 410  594.1438
 411  594.7549
 412  603.0518
 413  580.2361
 414  552.4149
 415  646.1287
 416  746.3059
 417  751.2311
 418  638.5248
 419  608.1913
 420  500.1144
 421  553.5179
 422  649.0023
 423  639.3791
 424  655.0771
 425  678.3198
 426  701.9351
 427  708.99
 428  667.553
 429  712.9994
 430  591.2098
 431  629.2804
 432  592.607
 433  660.1935
 434  588.0668
 435  575.7542
 436  546.8487
 437  549.4481
 438  603.4193
 439  697.4472
 440  735.8803
 441  647.6854
 442  608.8458
 443  563.6835
 444  603.7072
 445  542.5649
 446  601.7115
 447  664.9052
 448  493.5565
 449  577.8541
 450  731.9357
 451  694.2235
 452  660.5605
 453  642.9766
 454  581.7101
 455  611.1798
 456  581.1096
 457  641.1879
 458  636.9455
 459  515.2066
 460  574.8134
 461  537.7397
 462  518.4464
 463  562.8207
 464  498.1312
 465  510.3894
 466  609.7129
 467  486.5325
 468  457.9502
 469  488.2723
 470  484.8585
 471  473.2446
 472  453.7714
 473  593.3892
 474  491.6873
 475  400.6195
 476  504.4131
 477  602.9233
 478  585.5414
 479  658.4585
 480  618.5409
 481  569.8621
 482  546.128
 483  547.6617
 484  610.4859
 485  624.885
 486  645.2869
 487  716.5621
 488  669.8343
 489  554.1595
 490  570.4821
 491  650.4208
 492  714.2737
 493  724.0102
 494  587.7446
 495  604.4347
 496  669.5155
 497  578.7509
 498  505.2666
 499  604.582
 500  607.178
 501  629.2599
 502  679.9016
 503  703.3618
 504  798.6345
 505  836.6814
 506  832.7939
 507  835.2662
 508  787.1088
 509  996.771
 510  1266.201
 511  1258.841
