# Input file       =  1208614060.115285_cleaned.dat
# Candidate        =  PSR_0332+5434
# Telescope        =  AR
# Epoch_topo       =  58232.588878649134
# Epoch_bary       =  N/A
# T_sample         =  0.002
# Data Folded      =  7340032
# Data Avg         =  0.244472702148155
# Data StdDev      =  5.32642390059423 
# Profile Bins     =  1024
# Profile Avg      =  1752.2646882225  
# Profile StdDev   =  450.956576585055 
# Reduced chi-sqr  =  0.702
# Prob(Noise)      <  1   (~0.0 sigma)
# P_topo (ms)      =  714.552698644209  +/- 0.000459
# P'_topo (s/s)    =  -0                +/- 2.42e-10
# P''_topo (s/s^2) =  0                 +/- 1.07e-13
# P_bary (ms)      =  N/A
# P'_bary (s/s)    =  N/A
# P''_bary (s/s^2) =  N/A
# P_orb (s)        =  N/A
# asin(i)/c (s)    =  N/A
# eccentricity     =  N/A
# w (rad)          =  N/A
# T_peri           =  N/A
######################################################
   0  1609.292
   1  1538.101
   2  1390.116
   3  1424.218
   4  1340.785
   5  1337.265
   6  1246.913
   7  1266.221
   8  1175.575
   9  1253.751
  10  1257.515
  11  1320.961
  12  1247.145
  13  1207.444
  14  1132.772
  15  1258.955
  16  1434.331
  17  1515.441
  18  1452.279
  19  1348.321
  20  1369.113
  21  1237.947
  22  1290.337
  23  1406.271
  24  1538.452
  25  1523.156
  26  1449.556
  27  1472.298
  28  1485.82
  29  1461.239
  30  1430.704
  31  1372.773
  32  1414.828
  33  1569.068
  34  1477.323
  35  1424.474
  36  1352.494
  37  1534.813
  38  1682.739
  39  1805.127
  40  1816.355
  41  1718.933
  42  1672.06
  43  1763.375
  44  1918.976
  45  1880.932
  46  1820.658
  47  1863.604
  48  1861.713
  49  1801.709
  50  1868.906
  51  1997.792
  52  2045.295
  53  1937.847
  54  1846.581
  55  1791.931
  56  1805.725
  57  1764.861
  58  1722.803
  59  1656.515
  60  1774.314
  61  1816.363
  62  1875.331
  63  1827.669
  64  1816.148
  65  1808.35
  66  1847.79
  67  1840.085
  68  1909.81
  69  1891.599
  70  1897.757
  71  1886.224
  72  1917.758
  73  2009.911
  74  1858.833
  75  1785.624
  76  1661.721
  77  1626.076
  78  1701.668
  79  1790.287
  80  1867.004
  81  2048.445
  82  2151.753
  83  2135.946
  84  1934.341
  85  1756.203
  86  1693.051
  87  1689.084
  88  1825.405
  89  1910.18
  90  1931.049
  91  1945.153
  92  2003.617
  93  1976.802
  94  2008.997
  95  1891.26
  96  1880.227
  97  1768.481
  98  1596.38
  99  1524.963
 100  1492.499
 101  1496.177
 102  1353.007
 103  1377.694
 104  1381.516
 105  1448.312
 106  1420.729
 107  1441.751
 108  1468.511
 109  1483.169
 110  1417.318
 111  1526.694
 112  1521.117
 113  1489.278
 114  1496.119
 115  1516.597
 116  1584.222
 117  1661.894
 118  1796.699
 119  1948.687
 120  1817.523
 121  1649.97
 122  1654.968
 123  1608.757
 124  1765.157
 125  1774.532
 126  1761.083
 127  1670.78
 128  1749.533
 129  1884.854
 130  2014.115
 131  1881.112
 132  1839.041
 133  1784.012
 134  1724.196
 135  1693.393
 136  1837.451
 137  1922.07
 138  1950.328
 139  1904.99
 140  2074.428
 141  1966.328
 142  1887.131
 143  1939.639
 144  1935.604
 145  1822.743
 146  1741.162
 147  1703.468
 148  1677.748
 149  1777.568
 150  1807.397
 151  1820.752
 152  1836.931
 153  1840.301
 154  1995.984
 155  1999.131
 156  2062.02
 157  2026.341
 158  1925.954
 159  2031.669
 160  2028.305
 161  2085.537
 162  2043.375
 163  1944.525
 164  2050.58
 165  2156.059
 166  2202.058
 167  2086.631
 168  2014.018
 169  2028.037
 170  1905.88
 171  1826.857
 172  1805.058
 173  1915.519
 174  1740.432
 175  1723.269
 176  1552.872
 177  1483.742
 178  1488.474
 179  1604.081
 180  1690.259
 181  1771.042
 182  1824.185
 183  1741.926
 184  1621.216
 185  1539.154
 186  1573.341
 187  1588.615
 188  1699.571
 189  1740.984
 190  1633.779
 191  1656.185
 192  1637.116
 193  1689.023
 194  1646.424
 195  1643.576
 196  1760.637
 197  1843.818
 198  1802.182
 199  1707.87
 200  1619.56
 201  1703.789
 202  1715.465
 203  1831.392
 204  1853.55
 205  1916.904
 206  1825.792
 207  1755.273
 208  1829.102
 209  1920.881
 210  1922.641
 211  1887.606
 212  1846.696
 213  1896.148
 214  1908.768
 215  1928.205
 216  1772.056
 217  1732.91
 218  1651.382
 219  1725.538
 220  1721.791
 221  1840.039
 222  1945.318
 223  1897.766
 224  1837.576
 225  1863.474
 226  2035.182
 227  2103.814
 228  2207.53
 229  2230.305
 230  2148.385
 231  2031.506
 232  1935.914
 233  1828.053
 234  1888.791
 235  2033.975
 236  1974.469
 237  1846.727
 238  1823.05
 239  1927.744
 240  2008.093
 241  1967.659
 242  2135.679
 243  2067.105
 244  2117.089
 245  2023.76
 246  2108.945
 247  2199.718
 248  2135.891
 249  2027.31
 250  1890.04
 251  1896.996
 252  1965.961
 253  2047.419
 254  2030.259
 255  2007.799
 256  1940.487
 257  1931.047
 258  1987.486
 259  1940.836
 260  1838.133
 261  1651.903
 262  1671.974
 263  1734.621
 264  1894.42
 265  1950.75
 266  2126.055
 267  2055.879
 268  1980.88
 269  1828.858
 270  1715.326
 271  1766.448
 272  1734.804
 273  1760.194
 274  1826.351
 275  1804.168
 276  1861.668
 277  1861.416
 278  1954.073
 279  2082.367
 280  2122.478
 281  2090.192
 282  1926.667
 283  1737.959
 284  1722.013
 285  1946.694
 286  2040.389
 287  1970.617
 288  1835.901
 289  1878.973
 290  1943.789
 291  1914.446
 292  1901.599
 293  1748.126
 294  1772.792
 295  1719.051
 296  1730.578
 297  1727.55
 298  1716.386
 299  1799.456
 300  1817.271
 301  1915.808
 302  2046.684
 303  2034.956
 304  1868.664
 305  1790.219
 306  1784.912
 307  1871.965
 308  1856.044
 309  1935.853
 310  1909.95
 311  1860.621
 312  1792.872
 313  1786.792
 314  1808.164
 315  1798.901
 316  1777.474
 317  1756.799
 318  1793.227
 319  1729.845
 320  1676.309
 321  1694.225
 322  1736.236
 323  1857.346
 324  1842.812
 325  1770.801
 326  1691.412
 327  1788.195
 328  1725.152
 329  1626.948
 330  1494.053
 331  1422.833
 332  1387.162
 333  1384.569
 334  1462.113
 335  1472.362
 336  1469.091
 337  1421.349
 338  1582.415
 339  1650.385
 340  1684.165
 341  1645.693
 342  1699.622
 343  1739.521
 344  1850.576
 345  1861.604
 346  1828.64
 347  1771.056
 348  1768.635
 349  1776.849
 350  1767.245
 351  1737.286
 352  1637.099
 353  1666.442
 354  1649.337
 355  1712.986
 356  1669.44
 357  1907.711
 358  2113.759
 359  2199.873
 360  2188.003
 361  2171.352
 362  2072.189
 363  1927.137
 364  1811.038
 365  1745.932
 366  1575.096
 367  1497.405
 368  1625.945
 369  1781.287
 370  1822.465
 371  1856.038
 372  1840.585
 373  1921.873
 374  1895.857
 375  1898.271
 376  1841.416
 377  1913.44
 378  1761.403
 379  1682.705
 380  1637.131
 381  1663.616
 382  1718.212
 383  1727.42
 384  1797.742
 385  1803.662
 386  1840.135
 387  1908.705
 388  1943.439
 389  1950.21
 390  1850.043
 391  1814.034
 392  1702.031
 393  1660.099
 394  1665.842
 395  1747.814
 396  1730.883
 397  1650.824
 398  1637.778
 399  1662.374
 400  1657.088
 401  1753.745
 402  1845.843
 403  1880.036
 404  1851.03
 405  1850.697
 406  1768.786
 407  1811.205
 408  1884.895
 409  1824.563
 410  1820.576
 411  1850.57
 412  2032.134
 413  2105.388
 414  1975.314
 415  1801.259
 416  1693.514
 417  1690.976
 418  1766.401
 419  1895.496
 420  1945.622
 421  1864.926
 422  1861.081
 423  1864.108
 424  1836.882
 425  1827.831
 426  1738.606
 427  1707.671
 428  1666.694
 429  1728.001
 430  1715.899
 431  1652.991
 432  1699.939
 433  1660.493
 434  1687.729
 435  1615.62
 436  1585.496
 437  1643.701
 438  1716.23
 439  1657.606
 440  1586.213
 441  1708.073
 442  1908.022
 443  1866.383
 444  1748.159
 445  1740.261
 446  1722.301
 447  1619.431
 448  1554.015
 449  1533.925
 450  1538.991
 451  1489.742
 452  1613.62
 453  1732.641
 454  1760.372
 455  1745.504
 456  1841.052
 457  1910.266
 458  1894.67
 459  1785.38
 460  1843.018
 461  1959.464
 462  1843.985
 463  1727.171
 464  1598.425
 465  1602.344
 466  1667.823
 467  1717.433
 468  1824.779
 469  1854.242
 470  1849.571
 471  1771.36
 472  1719.91
 473  1709.31
 474  1717.822
 475  1819.707
 476  1792.307
 477  1863.682
 478  2024.582
 479  2180.025
 480  2243.136
 481  2158.211
 482  2055.674
 483  1975.888
 484  1972.234
 485  2013.159
 486  1965.727
 487  1858.435
 488  1922.755
 489  1845.743
 490  1759.308
 491  1500.005
 492  1677.355
 493  1771.572
 494  1902.892
 495  1886.597
 496  1959.791
 497  1825.666
 498  1610.976
 499  1608.528
 500  1749.157
 501  1778.074
 502  1725.325
 503  1668.312
 504  1721.546
 505  1764.294
 506  1830.924
 507  1739.705
 508  1752.328
 509  1711.247
 510  1839.005
 511  1698.545
 512  1658.89
 513  1560.725
 514  1588.926
 515  1648.647
 516  1675.788
 517  1716.395
 518  1741.172
 519  1681.225
 520  1639.543
 521  1622.176
 522  1645.385
 523  1768.105
 524  1834.448
 525  1893.998
 526  1820.906
 527  1704.994
 528  1632.503
 529  1659.23
 530  1706.72
 531  1715.003
 532  1756.417
 533  1859.615
 534  1884.934
 535  1870.583
 536  1789.238
 537  1816.197
 538  1725.896
 539  1798.02
 540  1851.036
 541  1835.386
 542  1738.812
 543  1774.67
 544  1918.548
 545  2012.279
 546  2001.465
 547  1939.631
 548  1874.946
 549  1759.516
 550  1670.531
 551  1737.169
 552  1902.224
 553  1970.26
 554  1899.062
 555  1767.078
 556  1779.79
 557  1786.702
 558  1832.681
 559  1801.509
 560  1834.716
 561  1995.518
 562  2085.86
 563  2065.753
 564  2047.461
 565  2056.388
 566  2029.968
 567  2027.279
 568  1901.605
 569  1912.583
 570  1831.937
 571  1819.747
 572  1713.59
 573  1550.007
 574  1636.189
 575  1662.8
 576  1905.603
 577  1852.756
 578  1986.703
 579  2044.981
 580  1938.482
 581  1846.587
 582  1705.964
 583  1701.58
 584  1571.388
 585  1603.909
 586  1618.546
 587  1620.842
 588  1718.577
 589  1838.184
 590  1924.439
 591  1876.347
 592  1739.605
 593  1791.56
 594  1808.123
 595  1912.106
 596  1991.407
 597  2218.158
 598  2423.33
 599  2573.003
 600  2727.628
 601  2765.122
 602  2679.264
 603  2462.821
 604  2413.975
 605  2457.858
 606  2446.355
 607  2269.024
 608  2155.389
 609  1884.84
 610  1773.859
 611  1661.247
 612  1555.183
 613  1395.052
 614  1326.638
 615  1437.43
 616  1490.06
 617  1452.04
 618  1588.296
 619  1631.43
 620  1508.515
 621  1365.58
 622  1314.083
 623  1379.324
 624  1483.231
 625  1627.592
 626  1761.817
 627  1797.598
 628  1816.63
 629  1797.868
 630  1798.923
 631  1854.776
 632  1846.538
 633  1770.746
 634  1642.644
 635  1610.979
 636  1671.814
 637  1763.351
 638  1863.34
 639  1910.421
 640  1916.6
 641  1928.943
 642  1822.625
 643  1880.245
 644  1838.037
 645  1896.493
 646  1718.804
 647  1626.854
 648  1447.516
 649  1587.817
 650  1732.135
 651  1654.401
 652  1462.144
 653  1375.77
 654  1564.358
 655  1584.349
 656  1520.054
 657  1478.603
 658  1444.736
 659  1470.987
 660  1508.819
 661  1543.839
 662  1454.271
 663  1364.916
 664  1369.695
 665  1395.098
 666  1346.295
 667  1401.947
 668  1451.687
 669  1470.396
 670  1459.86
 671  1549.622
 672  1594.972
 673  1530.259
 674  1545.069
 675  1695.325
 676  1769.978
 677  1725.524
 678  1766.001
 679  1707.867
 680  1746.698
 681  1680.957
 682  1686.558
 683  1715.083
 684  1696.239
 685  1643.563
 686  1506.468
 687  1482.422
 688  1609.37
 689  1656.112
 690  1623.914
 691  1584.444
 692  1668.795
 693  1847.972
 694  1950.949
 695  1856.556
 696  1768.397
 697  1687.478
 698  1669.849
 699  1644.296
 700  1529.243
 701  1474.618
 702  1342.417
 703  1490.855
 704  1568.065
 705  1496.62
 706  1428.716
 707  1472.618
 708  1478.286
 709  1459.879
 710  1489.193
 711  1595.847
 712  1645.312
 713  1587.874
 714  1681.407
 715  1616.518
 716  1593.415
 717  1566.147
 718  1623.141
 719  1528.548
 720  1357.533
 721  1377.305
 722  1457.184
 723  1444.474
 724  1496.308
 725  1612.938
 726  1688.834
 727  1674.037
 728  1732.637
 729  1746.065
 730  1748.588
 731  1759.421
 732  1773.454
 733  1664.123
 734  1472.925
 735  1347.487
 736  1344.661
 737  1369.881
 738  1364.479
 739  1532.004
 740  1651.939
 741  1515.021
 742  1334.549
 743  1418.163
 744  1511.505
 745  1439.247
 746  1344.397
 747  1523.029
 748  1621.303
 749  1675.13
 750  1662.199
 751  1817.085
 752  1722.316
 753  1573.578
 754  1504.573
 755  1604.17
 756  1621.095
 757  1735.921
 758  1643.886
 759  1657.899
 760  1540.994
 761  1729.603
 762  1787.996
 763  1716.562
 764  1628.256
 765  1605.454
 766  1677.312
 767  1670.884
 768  1648.138
 769  1708.824
 770  1700.639
 771  1830.09
 772  1961.436
 773  2128.136
 774  1962.519
 775  1798.331
 776  1758.218
 777  1785.517
 778  1818.072
 779  1858.294
 780  1956.41
 781  1911.177
 782  1755.13
 783  1741.165
 784  1688.237
 785  1622.255
 786  1616.961
 787  1729.007
 788  1890.424
 789  1861.465
 790  1794.684
 791  1716.458
 792  1660.263
 793  1758.835
 794  1828.914
 795  1938.257
 796  1892.54
 797  1812.048
 798  1830.211
 799  1802.017
 800  1696.826
 801  1772.882
 802  1893.823
 803  1967.555
 804  1890.404
 805  1797.583
 806  1741.582
 807  1696.857
 808  1723.311
 809  1783.618
 810  1966.396
 811  1991.285
 812  1999.706
 813  1919.539
 814  1874.699
 815  1956.475
 816  2068.186
 817  2098.241
 818  1953.091
 819  1928.454
 820  1742.403
 821  1744.267
 822  1586.081
 823  1663.806
 824  1763.415
 825  1900.253
 826  1975.211
 827  1933.498
 828  1877.56
 829  1656.822
 830  1574.443
 831  1593.396
 832  1630.316
 833  1623.486
 834  1642.901
 835  1666.258
 836  1720.218
 837  1759.21
 838  1697.538
 839  1569.085
 840  1547.863
 841  1620.104
 842  1632.81
 843  1690.777
 844  1753.815
 845  1872.163
 846  1936.302
 847  1873.902
 848  1709.815
 849  1662.239
 850  1718.566
 851  1719.17
 852  1740.118
 853  1718.842
 854  1699.328
 855  1690.831
 856  1829.76
 857  1886.444
 858  1903.023
 859  1887.619
 860  1786.649
 861  1827.316
 862  1867.175
 863  1907.494
 864  1752.956
 865  1620.109
 866  1477.933
 867  1337.964
 868  1253.602
 869  1451.026
 870  1569.529
 871  1643.094
 872  1518.182
 873  1609.919
 874  1639.583
 875  1762.953
 876  1659.05
 877  1767.23
 878  1833.199
 879  1820.884
 880  1708.691
 881  1654.281
 882  1698.185
 883  1602.245
 884  1551.657
 885  1485.059
 886  1467.219
 887  1314.72
 888  1257.155
 889  1230.946
 890  1234.274
 891  1363.113
 892  1446.024
 893  1535.876
 894  1526.157
 895  1591.082
 896  1635.988
 897  1599.494
 898  1419.309
 899  1324.796
 900  1436.787
 901  1605.673
 902  1594.591
 903  1478.547
 904  1447.959
 905  1530.719
 906  1620.883
 907  1596.396
 908  1502.335
 909  1473.085
 910  1524.737
 911  1484.954
 912  1337.508
 913  1261.055
 914  1346.501
 915  1485.085
 916  1556.576
 917  1607.32
 918  1644.359
 919  1723.953
 920  1767.524
 921  1822.936
 922  1987.565
 923  2056.872
 924  1941.902
 925  1897.99
 926  1699.946
 927  1680.587
 928  1568.132
 929  1757.665
 930  1885.7
 931  1847.256
 932  1752.373
 933  1680.512
 934  1708.845
 935  1767.342
 936  1828.036
 937  1872.12
 938  1864.973
 939  1816.641
 940  1805.236
 941  1747.131
 942  1851.887
 943  2006.609
 944  2072.671
 945  1874.942
 946  1822.436
 947  1962.055
 948  1962.205
 949  1839.214
 950  1679.443
 951  1700.922
 952  1593.014
 953  1665.579
 954  1831.402
 955  1810.592
 956  1746.602
 957  1770.052
 958  1971.05
 959  2030.721
 960  1925.542
 961  1880.18
 962  1823.946
 963  1865.406
 964  1891.46
 965  1783.952
 966  1780.881
 967  1679.706
 968  1630.391
 969  1580.289
 970  1670.297
 971  1760.571
 972  1737.835
 973  1658.652
 974  1775.064
 975  1879.334
 976  1958.47
 977  2024.025
 978  1983.304
 979  1974.775
 980  1892.003
 981  1769.203
 982  1777.762
 983  1780.982
 984  1915.905
 985  2046.991
 986  2083.755
 987  2130.712
 988  2096.698
 989  2120.109
 990  2101.538
 991  2081.09
 992  2175.876
 993  2070.121
 994  2008.074
 995  2058.882
 996  2147.571
 997  1981.324
 998  1945.607
 999  1847.192
1000  1920.143
1001  1916.125
1002  1825.802
1003  1805.391
1004  1743.647
1005  1755.624
1006  1666.544
1007  1719.403
1008  1800.89
1009  1867.34
1010  1881.436
1011  1888.569
1012  1821.668
1013  1707.034
1014  1564.248
1015  1523.596
1016  1604.717
1017  1516.86
1018  1444.183
1019  1339.347
1020  1359.228
1021  1321.519
1022  1432.174
1023  1581.812
