# Input file       =  1208958230.109069_cleaned.dat
# Candidate        =  PSR_0332+5434
# Telescope        =  AR
# Epoch_topo       =  58236.572327651265
# Epoch_bary       =  N/A
# T_sample         =  0.002
# Data Folded      =  7340032
# Data Avg         =  0.211067483884109
# Data StdDev      =  5.30035335816338 
# Profile Bins     =  1024
# Profile Avg      =  1512.92130730497 
# Profile StdDev   =  448.749339086923 
# Reduced chi-sqr  =  1.130
# Prob(Noise)      <  0.00226   (~2.8 sigma)
# P_topo (ms)      =  714.549225688157  +/- 0.000344
# P'_topo (s/s)    =  -0                +/- 1.82e-10
# P''_topo (s/s^2) =  0                 +/- 8.02e-14
# P_bary (ms)      =  N/A
# P'_bary (s/s)    =  N/A
# P''_bary (s/s^2) =  N/A
# P_orb (s)        =  N/A
# asin(i)/c (s)    =  N/A
# eccentricity     =  N/A
# w (rad)          =  N/A
# T_peri           =  N/A
######################################################
   0  1307.919
   1  1356.81
   2  1483.229
   3  1430.538
   4  1366.34
   5  1227.429
   6  1251.599
   7  1363.808
   8  1483.407
   9  1484.464
  10  1460.923
  11  1393.829
  12  1365.132
  13  1308.733
  14  1375.975
  15  1294.907
  16  1275.051
  17  1330.376
  18  1458.067
  19  1347.497
  20  1407.852
  21  1353.614
  22  1538.454
  23  1437.287
  24  1393.664
  25  1334.983
  26  1236.228
  27  1213.468
  28  1125.755
  29  1199.982
  30  1139.984
  31  1182.611
  32  1159.615
  33  1224.034
  34  1259.416
  35  1140.731
  36  1017.739
  37  1109.555
  38  1274.337
  39  1324.202
  40  1281.804
  41  1143.02
  42  1230.881
  43  1301.652
  44  1432.145
  45  1500.941
  46  1543.959
  47  1591.735
  48  1580.898
  49  1533.853
  50  1533.449
  51  1642.242
  52  1683.065
  53  1603.582
  54  1467.06
  55  1571.027
  56  1651.7
  57  1751.13
  58  1794.549
  59  1938.334
  60  1994.407
  61  1973.697
  62  1908.33
  63  1808.535
  64  1839.619
  65  1787.662
  66  1900.841
  67  1914.509
  68  1925.731
  69  1926.068
  70  1894.654
  71  1943.929
  72  1919.797
  73  1841.55
  74  1819.95
  75  1931.904
  76  1962.433
  77  1893.071
  78  1964.146
  79  1959.866
  80  1999.499
  81  1865.037
  82  1933.294
  83  1915.87
  84  1858.901
  85  1788.438
  86  1721.918
  87  1835.396
  88  1812.018
  89  1799.413
  90  1788.936
  91  1875.088
  92  1835.085
  93  1775.311
  94  1787.831
  95  1808.672
  96  1816.558
  97  1672.494
  98  1657.629
  99  1637.786
 100  1606.509
 101  1583.41
 102  1660.11
 103  1748.156
 104  1737.631
 105  1668.122
 106  1725.817
 107  1779.079
 108  1875.213
 109  1828.013
 110  1784.011
 111  1755.646
 112  1844.518
 113  1874.922
 114  2006.191
 115  1964.668
 116  1898.739
 117  1784.878
 118  1743.465
 119  1691.086
 120  1605.825
 121  1523.776
 122  1555.797
 123  1618.203
 124  1645.034
 125  1524.606
 126  1637.949
 127  1569.448
 128  1418.804
 129  1293.172
 130  1226.08
 131  1261.187
 132  1227.365
 133  1257.237
 134  1176.009
 135  1115.138
 136  1097.191
 137  1123.031
 138  987.2567
 139  914.2188
 140  1015.773
 141  1155.891
 142  1246.878
 143  1262.373
 144  1330.077
 145  1278.218
 146  1174.214
 147  1062.037
 148  1001.014
 149  1065.726
 150  1149.551
 151  1158.764
 152  1075.505
 153  1014.704
 154  1053.202
 155  1145.629
 156  1176.34
 157  1201.049
 158  1131.839
 159  1141.795
 160  1152.813
 161  1156.261
 162  1086.882
 163  1048.478
 164  1073.06
 165  1038.384
 166  1128.327
 167  1228.602
 168  1290.276
 169  1217.931
 170  1080.317
 171  942.8054
 172  878.2941
 173  1041.521
 174  1205.313
 175  1396.705
 176  1403.137
 177  1472.513
 178  1383.489
 179  1299.873
 180  1379.057
 181  1467.609
 182  1442.903
 183  1439.859
 184  1446.763
 185  1531.967
 186  1486.121
 187  1504.243
 188  1660.013
 189  1484.596
 190  1457.555
 191  1436.34
 192  1597.286
 193  1661.443
 194  1633.745
 195  1638.729
 196  1658.861
 197  1590.608
 198  1555.971
 199  1521.505
 200  1626.774
 201  1762.984
 202  1816.934
 203  1853.528
 204  1929.069
 205  1934.863
 206  1891.692
 207  1810.213
 208  1848.57
 209  1906.501
 210  1798.353
 211  1776.459
 212  1773.494
 213  1768.13
 214  1658.369
 215  1620.108
 216  1758.753
 217  1797.331
 218  1646.509
 219  1488.733
 220  1430.903
 221  1545.935
 222  1678.349
 223  1776.053
 224  1751.084
 225  1673.94
 226  1704.817
 227  1770.384
 228  1733.005
 229  1725.687
 230  1660.893
 231  1740.642
 232  1618.838
 233  1620.445
 234  1724.92
 235  1767.438
 236  1733.025
 237  1539.66
 238  1509.533
 239  1479.382
 240  1469.261
 241  1493.991
 242  1476.881
 243  1440.735
 244  1405.159
 245  1576.934
 246  1703.607
 247  1751.564
 248  1673.067
 249  1619.155
 250  1528.42
 251  1477.245
 252  1457.189
 253  1445.664
 254  1483.583
 255  1506.295
 256  1498.381
 257  1606.282
 258  1547.444
 259  1477.591
 260  1384.952
 261  1444.418
 262  1588.912
 263  1577.407
 264  1591.814
 265  1604.754
 266  1673.443
 267  1753.343
 268  1737.58
 269  1693.196
 270  1756.135
 271  1733.059
 272  1691.801
 273  1516.99
 274  1437.613
 275  1402.55
 276  1378.411
 277  1400.781
 278  1494.486
 279  1597.509
 280  1581.983
 281  1479.915
 282  1614.101
 283  1565.979
 284  1504.477
 285  1197.141
 286  1157.493
 287  1147.427
 288  1195.571
 289  1180.216
 290  1166.428
 291  1194.811
 292  1349.601
 293  1431.62
 294  1433.809
 295  1242.263
 296  1110.892
 297  1108.473
 298  1161.786
 299  1219.035
 300  1209.585
 301  1122.442
 302  1027.243
 303  988.5353
 304  998.2768
 305  1040.554
 306  1054.796
 307  1042.571
 308  1043.166
 309  1065.312
 310  1198.179
 311  1232.015
 312  1247.515
 313  1185.228
 314  1147.927
 315  1090.052
 316  1019.386
 317  1002.32
 318  1000.073
 319  1020.89
 320  1139.433
 321  1066.942
 322  1007.293
 323  973.0896
 324  1067.805
 325  1216.46
 326  1135.406
 327  1116.234
 328  1146.793
 329  1210.378
 330  1287.125
 331  1323.863
 332  1393.448
 333  1370.354
 334  1212.066
 335  1134.921
 336  1190.831
 337  1260.711
 338  1337.062
 339  1319.245
 340  1453.169
 341  1527.738
 342  1549.095
 343  1493.749
 344  1467.134
 345  1500.583
 346  1567.28
 347  1615.072
 348  1651.421
 349  1580.839
 350  1565.794
 351  1561.923
 352  1584.837
 353  1644.45
 354  1719.419
 355  1751.169
 356  1621.196
 357  1488.441
 358  1548.803
 359  1742.346
 360  1762.12
 361  1815.712
 362  1625.801
 363  1602.76
 364  1601.254
 365  1814.813
 366  1992.845
 367  2037.187
 368  1914.643
 369  1803.476
 370  1730.824
 371  1714.029
 372  1835.539
 373  1909.585
 374  2017.145
 375  2062.219
 376  2041.505
 377  1906.193
 378  1718.008
 379  1663.431
 380  1775.263
 381  1794.854
 382  1808.87
 383  1726.69
 384  1730.091
 385  1769.061
 386  1696.883
 387  1656.998
 388  1498.435
 389  1419.373
 390  1437.434
 391  1471.168
 392  1674.042
 393  1747.775
 394  1831.87
 395  1843.669
 396  1809.748
 397  1656.224
 398  1425.442
 399  1316.215
 400  1479.866
 401  1578.659
 402  1618.168
 403  1395.336
 404  1322.794
 405  1232.414
 406  1454.677
 407  1510.383
 408  1496.835
 409  1307.52
 410  1342.652
 411  1504.707
 412  1497.581
 413  1571.588
 414  1507.398
 415  1650.356
 416  1596.891
 417  1616.753
 418  1444.184
 419  1420.461
 420  1357.295
 421  1352.798
 422  1367.986
 423  1360.646
 424  1321.528
 425  1207.985
 426  1249.732
 427  1276.744
 428  1218.766
 429  1176.41
 430  1168.96
 431  1228.48
 432  1048.563
 433  997.8226
 434  885.3383
 435  945.416
 436  993.2354
 437  1113.021
 438  1031.261
 439  1039.687
 440  1097.243
 441  1123.047
 442  1134.885
 443  1190.67
 444  1231.568
 445  1140.018
 446  1003.09
 447  1052.771
 448  1101.019
 449  1223.627
 450  1227.194
 451  1226.643
 452  1079.404
 453  914.1793
 454  1029.769
 455  1173.83
 456  1240.461
 457  1174.404
 458  1243.821
 459  1153.387
 460  1126.893
 461  1004.432
 462  963.1512
 463  1009.904
 464  1138.291
 465  1174.244
 466  1184.883
 467  1140.751
 468  1219.48
 469  1213.761
 470  1277.973
 471  1300.833
 472  1114.28
 473  1073.93
 474  1043.736
 475  1156.309
 476  1172.511
 477  1195.552
 478  1342.733
 479  1428.279
 480  1514.047
 481  1459.042
 482  1361.153
 483  1443.511
 484  1389.544
 485  1349.753
 486  1392.188
 487  1416.669
 488  1391.736
 489  1359.064
 490  1358.924
 491  1492.062
 492  1454.458
 493  1547.662
 494  1443.68
 495  1546.055
 496  1483.209
 497  1453.358
 498  1389.511
 499  1480.928
 500  1512.186
 501  1447.979
 502  1340.486
 503  1342.817
 504  1440.502
 505  1515.48
 506  1612.505
 507  1601.855
 508  1577.072
 509  1487.528
 510  1650.039
 511  1717.42
 512  1743.046
 513  1717.299
 514  1778.61
 515  1684.567
 516  1724.23
 517  1785.37
 518  1734.728
 519  1636.578
 520  1639.219
 521  1708.104
 522  1598.26
 523  1390.842
 524  1417.086
 525  1503.593
 526  1543.037
 527  1492.219
 528  1501.939
 529  1499.914
 530  1565.183
 531  1630.923
 532  1706.23
 533  1695.508
 534  1606.953
 535  1504.52
 536  1482.092
 537  1401.59
 538  1448.323
 539  1483.096
 540  1572.67
 541  1542.526
 542  1530.401
 543  1630.043
 544  1674.367
 545  1598.693
 546  1499.707
 547  1536.282
 548  1617.466
 549  1585.174
 550  1581.393
 551  1674.263
 552  1649.068
 553  1608.139
 554  1478.872
 555  1455.327
 556  1359.511
 557  1376.472
 558  1409.318
 559  1446.081
 560  1483.461
 561  1508.19
 562  1680.23
 563  1681.996
 564  1674.234
 565  1646.084
 566  1592.73
 567  1621.67
 568  1428.544
 569  1327.915
 570  1186.281
 571  1124.446
 572  1101.334
 573  1038.745
 574  1232.303
 575  1404.72
 576  1500.903
 577  1386.468
 578  1383.312
 579  1239.018
 580  1328.756
 581  1452.018
 582  1583.747
 583  1575.028
 584  1417.426
 585  1493.363
 586  1440.642
 587  1392.574
 588  1320.406
 589  1301.764
 590  1233.448
 591  1317.537
 592  1353.889
 593  1474.179
 594  1449.478
 595  1639.163
 596  1714.679
 597  1950.97
 598  2212.866
 599  2463.668
 600  2601.211
 601  2555.238
 602  2496.214
 603  2421.088
 604  2300.805
 605  2117.595
 606  2100.132
 607  2097.943
 608  2011.69
 609  1807.889
 610  1691.84
 611  1706.577
 612  1630.211
 613  1625.653
 614  1634.046
 615  1735.69
 616  1701.755
 617  1691.112
 618  1826.376
 619  1729.164
 620  1654.738
 621  1586.214
 622  1739.679
 623  1710.103
 624  1672.713
 625  1465.255
 626  1435.914
 627  1351.311
 628  1467.598
 629  1484.94
 630  1555.214
 631  1593.166
 632  1681.124
 633  1657.522
 634  1478.392
 635  1313.357
 636  1386.718
 637  1482.867
 638  1558.974
 639  1628.76
 640  1670.047
 641  1750.194
 642  1880.388
 643  1955.134
 644  1841.624
 645  1719.354
 646  1708.35
 647  1854.82
 648  1905.042
 649  1844.429
 650  1783.871
 651  1783.521
 652  1787.372
 653  1740.492
 654  1720.761
 655  1700.019
 656  1741.429
 657  1651.634
 658  1715.475
 659  1787.097
 660  1947.176
 661  2027.902
 662  2055.032
 663  2000.26
 664  2067.06
 665  2060.776
 666  2105.791
 667  2092.209
 668  2113.459
 669  2021.674
 670  1959.439
 671  1957.422
 672  2053.913
 673  2122.365
 674  2108.416
 675  1915.852
 676  1766.497
 677  1713.958
 678  1866.648
 679  1987.583
 680  2021.948
 681  2019.257
 682  1904.365
 683  1822.978
 684  1693.886
 685  1678.614
 686  1640.015
 687  1726.393
 688  1751.431
 689  1847.223
 690  1801.981
 691  1729.572
 692  1650.512
 693  1722.434
 694  1603.065
 695  1485.37
 696  1413.04
 697  1623.734
 698  1771.538
 699  1767.466
 700  1798.509
 701  1795.45
 702  1897.748
 703  1857.44
 704  1780.026
 705  1805.769
 706  1802.095
 707  1916.864
 708  1885.124
 709  1963.824
 710  1977.61
 711  1940.36
 712  2029.277
 713  2088.808
 714  2041.827
 715  1781.618
 716  1681.817
 717  1664.474
 718  1647.623
 719  1559.553
 720  1575.834
 721  1702.663
 722  1741.59
 723  1717.265
 724  1672.513
 725  1549.372
 726  1588.898
 727  1655.087
 728  1688.503
 729  1710.505
 730  1804.687
 731  1826.963
 732  1687.493
 733  1584.895
 734  1590.304
 735  1514.125
 736  1447.974
 737  1383.131
 738  1504.115
 739  1470.007
 740  1445.51
 741  1432.525
 742  1425.67
 743  1412.693
 744  1278.551
 745  1275.86
 746  1174.601
 747  1163.094
 748  1248.407
 749  1333.849
 750  1323.247
 751  1373.419
 752  1359.83
 753  1319.997
 754  1270.506
 755  1294.982
 756  1383.643
 757  1533.988
 758  1563.941
 759  1489.893
 760  1351.269
 761  1243.826
 762  1169.164
 763  1331.34
 764  1462.853
 765  1606.457
 766  1591.816
 767  1604.872
 768  1725.203
 769  1744.38
 770  1807.197
 771  1764.651
 772  1810.196
 773  1807.04
 774  1774.608
 775  1847.656
 776  1769.238
 777  1890.962
 778  1808.977
 779  1915.948
 780  1847.698
 781  1975.588
 782  1917.229
 783  1876.552
 784  1906.882
 785  1857.022
 786  1854.857
 787  1828.632
 788  1838.656
 789  1801.775
 790  1751.048
 791  1699.108
 792  1771.237
 793  1769.482
 794  1758.552
 795  1751.373
 796  1845.464
 797  1973.685
 798  1912.099
 799  1840.93
 800  1730.176
 801  1606.547
 802  1446.431
 803  1339.447
 804  1360.443
 805  1485.148
 806  1611.001
 807  1739.401
 808  1822.511
 809  1831.139
 810  1739.239
 811  1695.183
 812  1737.694
 813  1781.532
 814  1767.613
 815  1742.806
 816  1759.354
 817  1709.646
 818  1506.644
 819  1402.088
 820  1520.213
 821  1585.314
 822  1620.193
 823  1585.693
 824  1606.114
 825  1489.652
 826  1435.351
 827  1495.638
 828  1574.064
 829  1495.211
 830  1511.262
 831  1522.885
 832  1458.863
 833  1262.682
 834  1110.789
 835  1165.305
 836  1333.775
 837  1347.164
 838  1398.874
 839  1323.753
 840  1358.65
 841  1344.531
 842  1317.307
 843  1286.936
 844  1344.134
 845  1427.93
 846  1405.843
 847  1276.538
 848  1307.58
 849  1419.93
 850  1562.257
 851  1467.471
 852  1472.999
 853  1576.072
 854  1675.314
 855  1556.748
 856  1462.026
 857  1540.083
 858  1661.374
 859  1629.491
 860  1426.248
 861  1352.714
 862  1351.888
 863  1358.013
 864  1432.65
 865  1473.122
 866  1425.828
 867  1415.3
 868  1585.856
 869  1719.006
 870  1623.586
 871  1535.018
 872  1575.936
 873  1611.952
 874  1675.982
 875  1531.129
 876  1493.758
 877  1466.656
 878  1400.23
 879  1329.628
 880  1330.946
 881  1284.174
 882  1269.777
 883  1336.261
 884  1509.63
 885  1587.241
 886  1478.366
 887  1423.889
 888  1354.284
 889  1348.636
 890  1509.148
 891  1585.736
 892  1597.295
 893  1419.723
 894  1630.548
 895  1603.651
 896  1633.534
 897  1479.966
 898  1561.778
 899  1483.301
 900  1347.077
 901  1402.429
 902  1484.732
 903  1498.531
 904  1443.677
 905  1479.554
 906  1538.75
 907  1434.885
 908  1428.842
 909  1354.319
 910  1336.185
 911  1274.335
 912  1356.994
 913  1473.584
 914  1447.65
 915  1393.984
 916  1436.722
 917  1435.604
 918  1317.696
 919  1243.574
 920  1274.722
 921  1377.874
 922  1260.041
 923  1216.553
 924  1257.61
 925  1338.863
 926  1327.672
 927  1341.529
 928  1275.555
 929  1221.624
 930  1237.579
 931  1268.213
 932  1378.826
 933  1399.32
 934  1444.055
 935  1464.637
 936  1376.35
 937  1330.42
 938  1408.919
 939  1488.561
 940  1605.973
 941  1443.435
 942  1333.725
 943  1319.961
 944  1337.902
 945  1467.204
 946  1484.303
 947  1556.615
 948  1601.075
 949  1486.451
 950  1451.676
 951  1398.517
 952  1308.32
 953  1322.132
 954  1287.973
 955  1267.939
 956  1265.328
 957  1392.183
 958  1450.563
 959  1449.267
 960  1378.932
 961  1381.053
 962  1399.438
 963  1410.138
 964  1360.961
 965  1208.426
 966  1063.074
 967  1045.009
 968  1109.92
 969  1089.274
 970  1182.769
 971  1278.784
 972  1392.555
 973  1291.704
 974  1251.338
 975  1241.475
 976  1337.433
 977  1397.268
 978  1395.161
 979  1357.059
 980  1355.449
 981  1503.119
 982  1559.081
 983  1567.07
 984  1379.738
 985  1293.252
 986  1291.928
 987  1374.083
 988  1554.898
 989  1642.497
 990  1607.12
 991  1373.63
 992  1190.607
 993  1105.311
 994  1230.535
 995  1191.839
 996  1342.613
 997  1340.258
 998  1453.282
 999  1488.264
1000  1516.885
1001  1628.213
1002  1611.488
1003  1469.152
1004  1205.045
1005  1252.065
1006  1480.593
1007  1522.051
1008  1535.019
1009  1362.804
1010  1335.925
1011  1342.935
1012  1306.425
1013  1299.806
1014  1255.754
1015  1415.163
1016  1505.434
1017  1528.07
1018  1543.165
1019  1510.631
1020  1497.812
1021  1612.904
1022  1549.852
1023  1473.205
