# Input file       =  1208700228.101068_cleaned.dat
# Candidate        =  PSR_0332+5434
# Telescope        =  AR
# Epoch_topo       =  58233.586193299401
# Epoch_bary       =  N/A
# T_sample         =  0.002
# Data Folded      =  7340032
# Data Avg         =  0.356995599746628
# Data StdDev      =  6.38952563144269 
# Profile Bins     =  512
# Profile Avg      =  5117.68699845467 
# Profile StdDev   =  765.037304859807 
# Reduced chi-sqr  =  0.724
# Prob(Noise)      <  1   (~0.0 sigma)
# P_topo (ms)      =  714.551842311918  +/- 0.000533
# P'_topo (s/s)    =  -0                +/- 2.81e-10
# P''_topo (s/s^2) =  0                 +/- 1.24e-13
# P_bary (ms)      =  N/A
# P'_bary (s/s)    =  N/A
# P''_bary (s/s^2) =  N/A
# P_orb (s)        =  N/A
# asin(i)/c (s)    =  N/A
# eccentricity     =  N/A
# w (rad)          =  N/A
# T_peri           =  N/A
######################################################
   0  5355.394
   1  5557.311
   2  5442.92
   3  5539.623
   4  5674.142
   5  6035.164
   6  5906.938
   7  6111.204
   8  6509.004
   9  6342.457
  10  6575.468
  11  6454.016
  12  6060.119
  13  5980.163
  14  6128.823
  15  6349.349
  16  5969.36
  17  5711.851
  18  5383.543
  19  5220.909
  20  5282.744
  21  5036.229
  22  4826.151
  23  5155.979
  24  5000.775
  25  5195.658
  26  5216.308
  27  5260.042
  28  5423.899
  29  5097.338
  30  5167.748
  31  5006.481
  32  4778.292
  33  4989.936
  34  4580.313
  35  4666.632
  36  4540.923
  37  4875.175
  38  4909.618
  39  5034.171
  40  4977.807
  41  5225.452
  42  5227.425
  43  5597.17
  44  5665.213
  45  5431.286
  46  5128.552
  47  5301.153
  48  5482.895
  49  5785.977
  50  5687.158
  51  5361.92
  52  5124.301
  53  5027.572
  54  4680.716
  55  4934.565
  56  5127.769
  57  4815.014
  58  4790.31
  59  4993.433
  60  5233.299
  61  5228.327
  62  5433.205
  63  5298.422
  64  4946.467
  65  5108.11
  66  5221.176
  67  5465.114
  68  5684.379
  69  5124.919
  70  5073.078
  71  5395.399
  72  5300.269
  73  5245.757
  74  5420.107
  75  5570.23
  76  5341.174
  77  5447.177
  78  4765.733
  79  4253.741
  80  4619.157
  81  5100.167
  82  5064.886
  83  5360.991
  84  5281.969
  85  4934.146
  86  5088.699
  87  5030.586
  88  4827.762
  89  4976.665
  90  5627.32
  91  5783.79
  92  5510.006
  93  5176.522
  94  5113.044
  95  5138.425
  96  5265.113
  97  5556.278
  98  5592.535
  99  5843.867
 100  5618.086
 101  5500.123
 102  5424.239
 103  5636.324
 104  5412.97
 105  5322.841
 106  5378.457
 107  5387.942
 108  5423.001
 109  5272.201
 110  5173.477
 111  5165.771
 112  5172.555
 113  5502.105
 114  5629.371
 115  5739.972
 116  5335.654
 117  5100.212
 118  5042.835
 119  5025.898
 120  4782.514
 121  5074.821
 122  5000.695
 123  4824.305
 124  5466.203
 125  5768.312
 126  5210.303
 127  5295.89
 128  5204.252
 129  5135.722
 130  5134.268
 131  5223.44
 132  5338.531
 133  5102.467
 134  4844.108
 135  4985.471
 136  4690.789
 137  4685.501
 138  4653.31
 139  4480.075
 140  4802.515
 141  4674.036
 142  4150.386
 143  4445.756
 144  4493.24
 145  4677.774
 146  4599.562
 147  4771.706
 148  4645.706
 149  4363.684
 150  4520.848
 151  4929.263
 152  5110.917
 153  5362.905
 154  5693.312
 155  5315.374
 156  5301.025
 157  5323.621
 158  5430.149
 159  5891.989
 160  5775.576
 161  5875.514
 162  5790.795
 163  5492.969
 164  5531.066
 165  5451.795
 166  5803.389
 167  5972.197
 168  5718.309
 169  5229.342
 170  5369.149
 171  5292.17
 172  5133.481
 173  5000.32
 174  5438.614
 175  5318.408
 176  5561.448
 177  5596.911
 178  5785.02
 179  6117.565
 180  6054.991
 181  6192.66
 182  5902.585
 183  6002.054
 184  6811.896
 185  7330.019
 186  7282.664
 187  7103.686
 188  6177.395
 189  5525.674
 190  5476.845
 191  5274.427
 192  5013.434
 193  5047.647
 194  5334.334
 195  5508.916
 196  5311.917
 197  5142.316
 198  5390.62
 199  5271.31
 200  5286.626
 201  5493.202
 202  5624.918
 203  5412.904
 204  5217.624
 205  4657.319
 206  4687.334
 207  4440.199
 208  5165.857
 209  5235.093
 210  4992.986
 211  5158.948
 212  5258.336
 213  5263.858
 214  5178.393
 215  4981.529
 216  4990.317
 217  5088.051
 218  5148.119
 219  5689.215
 220  5167.409
 221  5129.139
 222  5064.443
 223  4983.824
 224  4753.753
 225  4962.594
 226  4836.607
 227  4833.562
 228  4731.504
 229  4463.784
 230  4688.089
 231  4985.306
 232  4894.406
 233  4771.566
 234  4738.951
 235  4820.113
 236  4793.173
 237  4660.754
 238  5128.741
 239  5145.794
 240  5039.667
 241  4706.312
 242  4619.052
 243  4712.031
 244  4537.202
 245  4598.946
 246  4670.208
 247  4882.813
 248  5026.408
 249  4919.08
 250  4739.479
 251  4671.707
 252  4699.441
 253  4659.253
 254  5097.362
 255  5059.485
 256  4812.649
 257  5019.376
 258  4450.891
 259  4379.035
 260  4809.127
 261  4667.565
 262  4605.256
 263  4595.741
 264  4240.016
 265  4386.512
 266  4186.584
 267  4398.344
 268  4411.388
 269  4622.288
 270  5283.063
 271  5225.515
 272  5328.963
 273  5008.617
 274  4890.057
 275  4960.035
 276  4516.269
 277  4699.877
 278  4519.498
 279  4274.023
 280  4783.544
 281  4616.235
 282  4752.33
 283  4519.789
 284  4933.895
 285  5055.302
 286  4845.123
 287  4680.739
 288  4479.042
 289  4742.717
 290  4889.504
 291  4813.662
 292  4947.353
 293  4935.472
 294  4963.925
 295  5139.197
 296  4977.171
 297  4980.997
 298  4887.762
 299  5020.001
 300  5183.59
 301  5081.586
 302  5073.846
 303  5262.804
 304  5349.435
 305  5411.107
 306  5414.335
 307  5881.372
 308  5689.503
 309  5354.985
 310  5244.996
 311  5148.634
 312  5582.197
 313  5820.506
 314  5678.229
 315  5484.19
 316  5288.713
 317  5235.483
 318  5332.265
 319  5507.353
 320  5599.318
 321  5348.529
 322  5101.583
 323  5082.349
 324  4997.57
 325  4908.58
 326  4957.813
 327  5397.091
 328  5416.678
 329  5083.219
 330  4991.468
 331  5383.139
 332  5268.109
 333  5577.233
 334  5553.133
 335  5755.904
 336  5954.154
 337  5662.391
 338  5468.421
 339  5372.625
 340  5432.295
 341  5466.95
 342  5495.542
 343  5670.632
 344  5379.48
 345  5128.043
 346  4962.106
 347  4886.618
 348  4906.959
 349  4978.04
 350  5304.267
 351  5135.692
 352  4894.51
 353  4609.246
 354  4625.493
 355  5050.194
 356  4840.666
 357  5090.086
 358  4956.684
 359  5077.1
 360  4651.966
 361  4328.257
 362  4223.585
 363  4729.288
 364  4737.566
 365  4580.324
 366  4591.886
 367  4617.13
 368  4565.588
 369  4672.582
 370  4623.499
 371  4715.942
 372  4556.251
 373  4620.218
 374  4788.419
 375  4953.642
 376  4656.988
 377  4714.925
 378  4734.176
 379  4615.642
 380  4444.917
 381  4332.682
 382  4312.972
 383  4493.303
 384  4999.747
 385  5096.411
 386  4535.083
 387  4641.725
 388  4552.137
 389  4817.531
 390  4859.026
 391  4866.127
 392  4878.205
 393  4708.999
 394  4599.64
 395  4503.204
 396  4592.065
 397  4877.784
 398  4856.629
 399  5006.576
 400  5215.328
 401  5261.781
 402  5257.443
 403  5286.185
 404  5264.908
 405  5357.051
 406  5373.493
 407  5148.926
 408  4873.353
 409  4955.808
 410  5046.812
 411  5178.45
 412  5307.596
 413  5466.343
 414  5190.322
 415  5112.106
 416  5593.481
 417  5560.635
 418  5201.849
 419  5483.056
 420  5687.587
 421  5505.052
 422  5808.566
 423  5510.314
 424  5122.58
 425  5313.604
 426  5436.366
 427  5385.58
 428  5094.323
 429  4887.713
 430  4941.411
 431  4931.548
 432  4978.377
 433  4835.799
 434  4827.855
 435  4740.86
 436  4525.439
 437  4479.531
 438  4454.285
 439  4402.407
 440  4180.804
 441  4235.259
 442  4840.543
 443  4569.911
 444  4489.541
 445  4602.79
 446  4552.654
 447  4565.43
 448  4562.303
 449  4517.177
 450  4530.92
 451  4743.375
 452  4938.052
 453  4452.063
 454  4934.885
 455  4836.612
 456  4608.825
 457  4756.402
 458  4710.937
 459  4775.238
 460  4670.72
 461  4515.648
 462  4314.931
 463  4597.565
 464  4689.63
 465  4715.267
 466  4835.51
 467  4728.427
 468  4463.11
 469  4099.686
 470  4315.044
 471  5092.637
 472  5364.059
 473  5403.329
 474  4742.463
 475  4666.82
 476  4967.812
 477  4967.844
 478  4916.942
 479  5088.757
 480  4822.965
 481  4561.137
 482  4632.111
 483  4364.102
 484  4531.946
 485  5174.798
 486  4999.744
 487  5152.805
 488  5698.545
 489  5680.049
 490  5358.511
 491  5705.353
 492  5622.608
 493  6048.072
 494  6164.013
 495  6095.242
 496  5989.808
 497  5892.095
 498  5846.497
 499  5404.302
 500  5380.506
 501  5422.88
 502  5241.004
 503  4945.917
 504  4962.859
 505  4865.283
 506  4746.698
 507  5291.125
 508  5466.613
 509  5082.485
 510  5185.028
 511  5247.601
