# Input file       =  1208183128.111974_cleaned.dat
# Candidate        =  PSR_0332+5434
# Telescope        =  AR
# Epoch_topo       =  58227.601239721924
# Epoch_bary       =  N/A
# T_sample         =  0.002
# Data Folded      =  7340032
# Data Avg         =  0.194211379154045
# Data StdDev      =  5.59278444649733 
# Profile Bins     =  1024
# Profile Avg      =  1392.15193635892 
# Profile StdDev   =  473.507737018303 
# Reduced chi-sqr  =  1.066
# Prob(Noise)      <  0.0712   (~1.5 sigma)
# P_topo (ms)      =  714.556867006803  +/- 0.000293
# P'_topo (s/s)    =  -0                +/- 1.54e-10
# P''_topo (s/s^2) =  0                 +/- 6.82e-14
# P_bary (ms)      =  N/A
# P'_bary (s/s)    =  N/A
# P''_bary (s/s^2) =  N/A
# P_orb (s)        =  N/A
# asin(i)/c (s)    =  N/A
# eccentricity     =  N/A
# w (rad)          =  N/A
# T_peri           =  N/A
######################################################
   0  1274.245
   1  1229.87
   2  1232.356
   3  1328.286
   4  1304.88
   5  1380.991
   6  1446.481
   7  1421.68
   8  1342.418
   9  1183.785
  10  1246.59
  11  1447.057
  12  1577.298
  13  1563.131
  14  1463.769
  15  1536.886
  16  1637.24
  17  1755.524
  18  1711.645
  19  1630.109
  20  1690.896
  21  1685.659
  22  1695.931
  23  1562.725
  24  1692.38
  25  1780.87
  26  1909.686
  27  1910.375
  28  1873.043
  29  1767.464
  30  1829.516
  31  1856.296
  32  1853.729
  33  1760.264
  34  1810.644
  35  1828.155
  36  1755.064
  37  1621.181
  38  1662.409
  39  1699.951
  40  1827.787
  41  1959.648
  42  1994.148
  43  1878.956
  44  1759.631
  45  1793.833
  46  1734.497
  47  1489.674
  48  1305.249
  49  1318.242
  50  1423.182
  51  1384.888
  52  1343.326
  53  1434.413
  54  1595.894
  55  1870.055
  56  1985.373
  57  1961.529
  58  1807.91
  59  1759.435
  60  1809.194
  61  1761.818
  62  1692.917
  63  1692.433
  64  1596.711
  65  1600.491
  66  1561.783
  67  1720.22
  68  1708.383
  69  1736.204
  70  1734.145
  71  1839.82
  72  1903.03
  73  1828.534
  74  1803.006
  75  1740.512
  76  1795.027
  77  1807.23
  78  1883.226
  79  1906.947
  80  1874.002
  81  1846.446
  82  1760.333
  83  1752.274
  84  1729.373
  85  1679.876
  86  1516.055
  87  1437.851
  88  1507.462
  89  1573.263
  90  1533.32
  91  1646.183
  92  1723.99
  93  1699.953
  94  1617.054
  95  1575.901
  96  1709.148
  97  1659.463
  98  1620.917
  99  1725.485
 100  1654.542
 101  1629.939
 102  1479.496
 103  1540.6
 104  1486.654
 105  1603.606
 106  1606.917
 107  1535.582
 108  1461.73
 109  1426.997
 110  1516.69
 111  1430.023
 112  1537.483
 113  1563.02
 114  1661.647
 115  1726.454
 116  1695.165
 117  1484.661
 118  1384.56
 119  1333.404
 120  1301.6
 121  1363.875
 122  1340.821
 123  1335.347
 124  1199.671
 125  1119.625
 126  1038.265
 127  1187.388
 128  1192.949
 129  1203.209
 130  1179.896
 131  1354.398
 132  1378.597
 133  1244.09
 134  1209.181
 135  1253.246
 136  1356.608
 137  1375.631
 138  1339.423
 139  1348.126
 140  1270.508
 141  1280.861
 142  1276.761
 143  1359.777
 144  1228.056
 145  1090.846
 146  995.6445
 147  1117.483
 148  1257.987
 149  1273.782
 150  1217.161
 151  1204.325
 152  1253.211
 153  1326.342
 154  1434.284
 155  1498.135
 156  1562.069
 157  1428.726
 158  1315.472
 159  1130.032
 160  996.3875
 161  916.8873
 162  940.712
 163  1113.457
 164  1301.643
 165  1394.509
 166  1412.857
 167  1298.259
 168  1139.768
 169  1191.313
 170  1218.754
 171  1182.014
 172  1117.158
 173  1263.439
 174  1346.909
 175  1201.605
 176  1193.727
 177  1203.366
 178  1317.674
 179  1228.67
 180  1219.885
 181  1063.978
 182  1008.323
 183  1029.642
 184  1170.173
 185  1133.533
 186  1209.658
 187  1206.38
 188  1204.579
 189  1011.812
 190  1164.026
 191  1329.69
 192  1372.719
 193  1273.239
 194  1234.584
 195  1301.897
 196  1302.184
 197  1279.196
 198  1221.973
 199  1121.637
 200  1081.377
 201  1225.01
 202  1341.507
 203  1427.494
 204  1275.949
 205  1258.593
 206  1225.337
 207  1274.071
 208  1310.041
 209  1462.223
 210  1529.443
 211  1442.24
 212  1339.339
 213  1228.534
 214  1374.795
 215  1429.476
 216  1614.043
 217  1620.398
 218  1676.26
 219  1539.281
 220  1481.392
 221  1454.492
 222  1473.029
 223  1547.356
 224  1493.33
 225  1520.908
 226  1474.036
 227  1395.813
 228  1349.275
 229  1316.111
 230  1295.439
 231  1322.863
 232  1383.111
 233  1401.633
 234  1359.915
 235  1292.103
 236  1211.897
 237  1111.736
 238  1018.28
 239  1056.977
 240  1073.929
 241  1085.306
 242  1098.4
 243  1087.676
 244  1096.51
 245  1118.118
 246  1054.906
 247  1074.122
 248  1139.968
 249  1075.609
 250  900.2542
 251  799.3928
 252  833.5378
 253  875.7803
 254  940.5883
 255  960.5238
 256  997.5254
 257  1003.055
 258  1056.401
 259  987.4131
 260  847.1397
 261  799.2969
 262  884.1758
 263  930.5991
 264  956.7162
 265  969.4127
 266  955.2842
 267  844.6066
 268  913.5432
 269  958.8442
 270  907.278
 271  866.2637
 272  936.8212
 273  1138.754
 274  1045.734
 275  1027.052
 276  1108.302
 277  1247.952
 278  1159.882
 279  1039.579
 280  973.5377
 281  862.5082
 282  836.4345
 283  900.8829
 284  991.7234
 285  969.267
 286  1014.639
 287  1033.388
 288  1105.904
 289  1104.488
 290  1192.012
 291  1204.619
 292  1212.163
 293  1045.546
 294  933.3511
 295  959.8056
 296  1278.945
 297  1296.021
 298  1173.199
 299  1099.634
 300  1156.846
 301  1158.975
 302  1082.794
 303  1046.778
 304  1088.279
 305  1215.14
 306  1226.845
 307  1193.902
 308  1193.408
 309  1216.449
 310  1229.71
 311  1192.241
 312  1317.989
 313  1286.103
 314  1219.855
 315  1144.272
 316  1189.435
 317  1151.931
 318  1300.058
 319  1284.742
 320  1303.899
 321  1186.201
 322  1138.329
 323  1048.492
 324  973.4032
 325  1126.866
 326  1247.02
 327  1294.559
 328  1193.97
 329  1131.633
 330  1016.192
 331  1000.457
 332  949.7478
 333  1009.568
 334  975.1268
 335  1051.442
 336  1200.724
 337  1325.634
 338  1452.491
 339  1569.67
 340  1625.342
 341  1646.939
 342  1564.016
 343  1373.933
 344  1430.918
 345  1488.965
 346  1477.565
 347  1304.636
 348  1185.271
 349  1193.845
 350  1323.706
 351  1400.116
 352  1452.053
 353  1430.844
 354  1473.363
 355  1595.552
 356  1562.136
 357  1442.412
 358  1426.806
 359  1469.747
 360  1567.014
 361  1638.97
 362  1619.544
 363  1569.245
 364  1490.832
 365  1420.807
 366  1545.969
 367  1569.39
 368  1621.419
 369  1578.562
 370  1434.156
 371  1419.326
 372  1569.928
 373  1734.928
 374  1749.468
 375  1605.917
 376  1498.534
 377  1485.482
 378  1467.403
 379  1351.644
 380  1301.894
 381  1191.446
 382  1157.529
 383  1196.91
 384  1278.838
 385  1278.677
 386  1273.039
 387  1329.748
 388  1358.89
 389  1338.479
 390  1331.317
 391  1420.228
 392  1356.368
 393  1318.356
 394  1266.819
 395  1261.576
 396  1196.495
 397  1187.428
 398  1233.971
 399  1318.643
 400  1227.957
 401  1200.769
 402  1083.736
 403  1039.147
 404  1006.894
 405  1007.068
 406  944.6631
 407  894.8099
 408  1011.862
 409  1157.113
 410  1094.502
 411  1069.346
 412  1148.278
 413  1303.327
 414  1300.353
 415  1229.996
 416  1256.792
 417  1421.311
 418  1283.889
 419  1072.284
 420  963.2664
 421  1039.2
 422  1120.565
 423  1049.625
 424  1111.215
 425  1176.725
 426  1145.001
 427  1138.679
 428  1025.668
 429  1076.459
 430  1144.533
 431  1193.106
 432  1151.138
 433  899.4585
 434  858.9706
 435  938.8035
 436  1135.471
 437  1159.938
 438  1275.207
 439  1405.872
 440  1481.487
 441  1327.16
 442  1254.824
 443  1189.732
 444  1227.455
 445  1168.79
 446  1173.854
 447  1120.443
 448  1131.977
 449  1107.211
 450  1228.058
 451  1343.783
 452  1342.394
 453  1219.68
 454  1148.132
 455  1195.061
 456  1277.662
 457  1302.699
 458  1316.987
 459  1305.953
 460  1287.125
 461  1228.86
 462  1223.841
 463  1132.487
 464  1100.056
 465  1109.232
 466  1158.666
 467  1232.218
 468  1224.86
 469  1133.026
 470  1110.915
 471  1245.929
 472  1387.667
 473  1461.378
 474  1474.608
 475  1418.685
 476  1421.44
 477  1468.83
 478  1472.898
 479  1451.268
 480  1487.531
 481  1495.949
 482  1406.663
 483  1289.984
 484  1379.737
 485  1336.127
 486  1455.483
 487  1339.225
 488  1432.89
 489  1478.852
 490  1612.129
 491  1734.798
 492  1759.188
 493  1728.252
 494  1598.802
 495  1654.144
 496  1608.76
 497  1613.719
 498  1574.477
 499  1497.621
 500  1553.694
 501  1711.322
 502  1830.528
 503  1741.856
 504  1733.954
 505  1604.027
 506  1622.607
 507  1551.155
 508  1521.771
 509  1441.425
 510  1321.283
 511  1276.067
 512  1193.953
 513  1281.328
 514  1341.422
 515  1484.12
 516  1486.162
 517  1485.154
 518  1558.17
 519  1644.636
 520  1638.023
 521  1658.278
 522  1567.183
 523  1395.529
 524  1391.899
 525  1399.401
 526  1542.791
 527  1400.828
 528  1376.151
 529  1341.366
 530  1463.495
 531  1522.018
 532  1507.022
 533  1513.881
 534  1490.49
 535  1458.584
 536  1243.003
 537  1222.858
 538  1209.235
 539  1274.893
 540  1403.453
 541  1253.206
 542  1215.696
 543  1182.612
 544  1341.902
 545  1386.625
 546  1390.176
 547  1401.848
 548  1352.273
 549  1387.507
 550  1358.739
 551  1382.877
 552  1221.927
 553  1088
 554  1094.887
 555  1267.349
 556  1394.742
 557  1418.655
 558  1359.417
 559  1432.291
 560  1345.256
 561  1341.415
 562  1285.173
 563  1326.52
 564  1404.11
 565  1504.243
 566  1462.207
 567  1505.974
 568  1441.16
 569  1410.197
 570  1370.939
 571  1447.18
 572  1525.385
 573  1537.124
 574  1607.37
 575  1591.264
 576  1523.262
 577  1404.228
 578  1413.81
 579  1325.568
 580  1359.818
 581  1374.735
 582  1485.071
 583  1387.469
 584  1316.41
 585  1366.877
 586  1412.548
 587  1453.66
 588  1370.065
 589  1299.838
 590  1243.053
 591  1113.517
 592  1125.269
 593  1123.041
 594  1380.9
 595  1440.4
 596  1567.91
 597  1769.656
 598  1938.093
 599  2042.598
 600  2063.781
 601  2112.297
 602  2306.86
 603  2365.841
 604  2372.825
 605  2295.624
 606  2104.745
 607  2031.277
 608  1798.735
 609  1601.188
 610  1485.26
 611  1427.577
 612  1545.819
 613  1470.818
 614  1367.465
 615  1289.617
 616  1393.464
 617  1591.76
 618  1670.401
 619  1665.98
 620  1611.791
 621  1699.756
 622  1761.278
 623  1814.768
 624  1769.911
 625  1880.585
 626  1905.08
 627  1933.353
 628  1905.539
 629  1888.919
 630  1982.369
 631  2039.248
 632  2140.086
 633  2078.188
 634  2143.718
 635  2104.997
 636  1990.202
 637  1912.22
 638  1902.991
 639  1958.747
 640  1896.375
 641  1881.099
 642  1995.36
 643  2049.752
 644  2076.674
 645  1969.124
 646  1956.141
 647  1921.615
 648  1848.164
 649  1863.459
 650  1840.41
 651  1680.835
 652  1651.471
 653  1684.322
 654  1822.062
 655  1724.112
 656  1788.997
 657  1764.307
 658  1816.455
 659  1760.446
 660  1725.025
 661  1694.97
 662  1680.413
 663  1681.737
 664  1694.481
 665  1712.485
 666  1753.015
 667  1783.088
 668  1696.109
 669  1516.807
 670  1439.014
 671  1378.529
 672  1389.432
 673  1481.02
 674  1459.624
 675  1463.388
 676  1304.085
 677  1234.074
 678  1204.35
 679  1433.942
 680  1461.801
 681  1583.02
 682  1427.981
 683  1324.57
 684  1162.738
 685  1272.076
 686  1435.726
 687  1499.324
 688  1425.535
 689  1453.775
 690  1510.816
 691  1503.373
 692  1459.789
 693  1426.909
 694  1427.947
 695  1462.678
 696  1403.943
 697  1364.503
 698  1275.093
 699  1154.049
 700  1088.467
 701  1095.346
 702  1177.057
 703  1091.196
 704  1113.969
 705  1203.509
 706  1311.239
 707  1263.769
 708  1245.133
 709  1226.111
 710  1304.415
 711  1338.305
 712  1292.471
 713  1075.407
 714  965.9931
 715  963.0739
 716  932.8552
 717  919.4683
 718  995.5881
 719  1052.345
 720  969.8165
 721  918.6283
 722  894.263
 723  895.6734
 724  873.1437
 725  859.2032
 726  787.1121
 727  829.3999
 728  960.6976
 729  1134.484
 730  1060.454
 731  1118.446
 732  1093.179
 733  1087.821
 734  1001.824
 735  951.7336
 736  983.8333
 737  949.0632
 738  973.8864
 739  902.2168
 740  934.8946
 741  1042.34
 742  1268.168
 743  1327.454
 744  1297.505
 745  1244.272
 746  1209.501
 747  1228.81
 748  1131.471
 749  1033.527
 750  961.5881
 751  959.1102
 752  1092.595
 753  1106.396
 754  1233.57
 755  1285.64
 756  1411.733
 757  1384.239
 758  1285.042
 759  1274.53
 760  1319.837
 761  1449.805
 762  1446.276
 763  1369.832
 764  1289.83
 765  1415.978
 766  1544.692
 767  1467.868
 768  1366.721
 769  1311.846
 770  1389.541
 771  1545.793
 772  1711.616
 773  1687.194
 774  1448.157
 775  1337.001
 776  1452.316
 777  1605.189
 778  1688.795
 779  1638.371
 780  1681.231
 781  1703.45
 782  1747.174
 783  1691.119
 784  1655.921
 785  1600.473
 786  1717.842
 787  1813.488
 788  1767.166
 789  1711.72
 790  1583.394
 791  1582.551
 792  1516.563
 793  1674.568
 794  1844.008
 795  1846.67
 796  1852.588
 797  1796.486
 798  1736.563
 799  1636.392
 800  1582.307
 801  1748.19
 802  1736.32
 803  1749.647
 804  1632.319
 805  1532.632
 806  1579.637
 807  1698.881
 808  1804.8
 809  1754.682
 810  1795.407
 811  1834.205
 812  1758.862
 813  1607.065
 814  1590.462
 815  1663.786
 816  1727.097
 817  1587.97
 818  1363.896
 819  1404.061
 820  1309.368
 821  1288.072
 822  1303.495
 823  1437.094
 824  1447.911
 825  1461.108
 826  1416.59
 827  1234.293
 828  1077.17
 829  1132.235
 830  1229.405
 831  1258.215
 832  1300.509
 833  1264.793
 834  1294.828
 835  1333.123
 836  1335.718
 837  1333.25
 838  1212.055
 839  1146.554
 840  1141.902
 841  1290.868
 842  1348.714
 843  1296.543
 844  1286.235
 845  1190.527
 846  1121.278
 847  1044.998
 848  962.9648
 849  927.3274
 850  1029.147
 851  1120.317
 852  1101.837
 853  1164.804
 854  1206.667
 855  1256.956
 856  1171.712
 857  1110.948
 858  1126.984
 859  1165.538
 860  1185.373
 861  1145.625
 862  1065.283
 863  1027.369
 864  913.45
 865  1056.681
 866  1192.361
 867  1408.817
 868  1360.229
 869  1240.476
 870  1058.629
 871  1004.267
 872  984.754
 873  981.8286
 874  1092.573
 875  1288.56
 876  1416.586
 877  1422.684
 878  1356.573
 879  1433.169
 880  1290.401
 881  1241.555
 882  1180.303
 883  1300.197
 884  1409.034
 885  1457.94
 886  1514.253
 887  1559.611
 888  1586.973
 889  1473.656
 890  1380.085
 891  1322.951
 892  1372.086
 893  1404.303
 894  1399.841
 895  1337.506
 896  1297.358
 897  1352.641
 898  1355.229
 899  1401.552
 900  1361.477
 901  1390.382
 902  1325.071
 903  1446.746
 904  1521.924
 905  1500.328
 906  1524.197
 907  1500.38
 908  1597.151
 909  1667.002
 910  1698.614
 911  1606.551
 912  1679.714
 913  1635.819
 914  1686.088
 915  1589.446
 916  1708.255
 917  1717.657
 918  1629.73
 919  1501.331
 920  1562.083
 921  1635.499
 922  1771.646
 923  1790.958
 924  1815.959
 925  1662.088
 926  1602.919
 927  1365.148
 928  1360.574
 929  1427.06
 930  1649.974
 931  1672.466
 932  1712.206
 933  1747.357
 934  1883.385
 935  1797.256
 936  1751.974
 937  1725.54
 938  1809.764
 939  1694.592
 940  1577.14
 941  1437.86
 942  1467.436
 943  1610.264
 944  1682.867
 945  1669.822
 946  1669.246
 947  1667.747
 948  1732.595
 949  1819.946
 950  1811.837
 951  1859.156
 952  1697.128
 953  1540.294
 954  1318.177
 955  1233.689
 956  1196.842
 957  1288.104
 958  1488.91
 959  1562.013
 960  1745.053
 961  1632.101
 962  1632.533
 963  1515.729
 964  1469.695
 965  1438.457
 966  1438.317
 967  1543.654
 968  1538.458
 969  1517.584
 970  1451.549
 971  1463.945
 972  1337.413
 973  1201.583
 974  1195.326
 975  1316.906
 976  1458.39
 977  1510.344
 978  1384.383
 979  1174.999
 980  1060.079
 981  1055.107
 982  1231.33
 983  1234.299
 984  1251.559
 985  1227.302
 986  1271.732
 987  1340.311
 988  1442.673
 989  1461.553
 990  1389.73
 991  1328.715
 992  1239.791
 993  1168.478
 994  1154.448
 995  1259.319
 996  1334.463
 997  1356.623
 998  1477.703
 999  1475.69
1000  1497.078
1001  1559.634
1002  1534.409
1003  1451.372
1004  1290.572
1005  1241.014
1006  1082.09
1007  1011.684
1008  1007.572
1009  1186.322
1010  1324.26
1011  1343.274
1012  1209.587
1013  1118.901
1014  1112.124
1015  1100.256
1016  1190.053
1017  1264.028
1018  1343.952
1019  1326.192
1020  1255.061
1021  1165.065
1022  1234.544
1023  1239.684
