# Input file       =  1208426804.106366_cleaned.dat
# Candidate        =  PSR_0332+5434
# Telescope        =  AR
# Epoch_topo       =  58230.421563731084
# Epoch_bary       =  N/A
# T_sample         =  0.002
# Data Folded      =  7340032
# Data Avg         =  0.0426239617992716
# Data StdDev      =  0.999954791097188
# Profile Bins     =  512
# Profile Avg      =  610.57581813022  
# Profile StdDev   =  119.727623377561 
# Reduced chi-sqr  =  1.602
# Prob(Noise)      <  1.31e-16   (~8.2 sigma)
# P_topo (ms)      =  714.554195587571  +/- 0.000366
# P'_topo (s/s)    =  -0                +/- 1.93e-10
# P''_topo (s/s^2) =  0                 +/- 8.53e-14
# P_bary (ms)      =  N/A
# P'_bary (s/s)    =  N/A
# P''_bary (s/s^2) =  N/A
# P_orb (s)        =  N/A
# asin(i)/c (s)    =  N/A
# eccentricity     =  N/A
# w (rad)          =  N/A
# T_peri           =  N/A
######################################################
   0  526.1846
   1  620.9643
   2  642.468
   3  734.8533
   4  723.1574
   5  676.4216
   6  648.4324
   7  731.3487
   8  712.8246
   9  669.3113
  10  693.3966
  11  800.8821
  12  691.1177
  13  692.4885
  14  654.4236
  15  596.3385
  16  522.4251
  17  539.7004
  18  589.5053
  19  554.5007
  20  612.6548
  21  635.6201
  22  675.8684
  23  650.9454
  24  482.2418
  25  544.3045
  26  429.3414
  27  544.3901
  28  616.8192
  29  662.3278
  30  549.5034
  31  549.6726
  32  690.8265
  33  698.9335
  34  610.1206
  35  608.3264
  36  630.0797
  37  634.9691
  38  654.5245
  39  701.5735
  40  642.5811
  41  599.3698
  42  469.9963
  43  598.8087
  44  599.6157
  45  650.868
  46  706.5353
  47  670.2597
  48  637.8615
  49  642.4441
  50  627.2709
  51  622.3727
  52  656.3284
  53  687.2646
  54  772.9587
  55  760.4531
  56  683.4795
  57  690.1852
  58  641.8042
  59  760.9846
  60  758.5517
  61  714.4707
  62  702.3278
  63  688.5739
  64  729.5576
  65  772.4006
  66  736.3184
  67  794.0587
  68  749.9498
  69  720.2005
  70  713.9384
  71  702.6498
  72  672.2188
  73  645.7229
  74  670.9756
  75  696.0454
  76  639.1029
  77  613.5268
  78  633.4747
  79  660.5895
  80  685.9077
  81  627.5991
  82  540.8177
  83  587.5162
  84  668.4916
  85  667.4725
  86  562.5769
  87  578.4096
  88  608.7092
  89  623.6931
  90  612.0087
  91  643.906
  92  600.7125
  93  643.5941
  94  724.1547
  95  604.7057
  96  583.5386
  97  604.8572
  98  667.7834
  99  669.1472
 100  594.7448
 101  509.2148
 102  582.6479
 103  624.5215
 104  685.3174
 105  601.3035
 106  592.5208
 107  645.3824
 108  586.2859
 109  650.6321
 110  695.2003
 111  591.4501
 112  667.353
 113  599.6818
 114  595.3517
 115  631.5754
 116  688.6404
 117  657.2283
 118  594.83
 119  632.8232
 120  628.2061
 121  626.6219
 122  605.9898
 123  716.7826
 124  753.2844
 125  578.146
 126  542.0959
 127  647.7357
 128  667.2789
 129  632.7927
 130  665.7344
 131  628.6587
 132  542.4916
 133  608.5387
 134  707.2115
 135  733.1945
 136  656.3588
 137  652.5928
 138  688.6688
 139  699.4945
 140  721.1871
 141  716.0403
 142  730.6343
 143  751.8983
 144  643.0479
 145  599.4772
 146  610.853
 147  691.8166
 148  650.3096
 149  614.6561
 150  608.2399
 151  533.6281
 152  518.3291
 153  616.679
 154  767.2523
 155  698.059
 156  516.285
 157  568.1389
 158  635.0339
 159  620.0421
 160  609.148
 161  651.2637
 162  663.4917
 163  653.7531
 164  674.3453
 165  648.283
 166  629.3885
 167  614.0606
 168  555.6799
 169  618.6555
 170  680.6096
 171  573.2753
 172  568.3781
 173  626.8573
 174  631.4491
 175  516.744
 176  498.4877
 177  510.5399
 178  515.0078
 179  362.1005
 180  342.7889
 181  469.5434
 182  514.7479
 183  450.8936
 184  459.5664
 185  397.1961
 186  447.3624
 187  391.2101
 188  452.8048
 189  537.3032
 190  444.9383
 191  440.694
 192  423.507
 193  523.266
 194  536.3053
 195  594.4769
 196  558.6025
 197  600.4082
 198  687.1583
 199  642.8363
 200  628.5043
 201  558.0425
 202  598.4865
 203  613.3361
 204  543.9664
 205  561.7727
 206  654.6879
 207  638.86
 208  569.9899
 209  630.9477
 210  701.2795
 211  658.2853
 212  585.3261
 213  535.8487
 214  586.2427
 215  633.2112
 216  579.4125
 217  507.4862
 218  520.2286
 219  548.1
 220  527.0393
 221  589.6142
 222  499.7992
 223  521.1149
 224  524.0568
 225  499.7478
 226  529.8897
 227  512.1913
 228  479.2284
 229  531.4991
 230  605.8499
 231  538.7305
 232  520.5441
 233  563.5009
 234  566.0107
 235  543.7532
 236  536.2515
 237  482.0446
 238  498.4029
 239  392.8688
 240  523.393
 241  583.0075
 242  595.2681
 243  603.1152
 244  516.1618
 245  450.6128
 246  502.0474
 247  605.2911
 248  558.5473
 249  499.774
 250  459.6521
 251  490.9308
 252  534.4146
 253  516.4202
 254  418.7299
 255  432.8416
 256  463.4755
 257  419.6322
 258  503.6059
 259  444.8226
 260  415.4473
 261  456.4048
 262  450.9832
 263  502.7683
 264  472.2974
 265  450.332
 266  507.5905
 267  546.8765
 268  579.4059
 269  586.1357
 270  513.2829
 271  408.2625
 272  401.0686
 273  437.5725
 274  596.6207
 275  576.7188
 276  612.244
 277  647.517
 278  550.7863
 279  438.343
 280  509.0618
 281  551.1752
 282  564.8494
 283  616.3309
 284  558.86
 285  604.6963
 286  503.3786
 287  558.5554
 288  609.1882
 289  564.238
 290  547.6873
 291  508.0041
 292  641.2719
 293  648.0778
 294  574.7283
 295  627.3286
 296  662.6412
 297  685.6338
 298  577.3547
 299  518.2883
 300  539.4927
 301  553.8759
 302  551.6973
 303  561.9398
 304  589.9076
 305  668.8253
 306  665.7914
 307  655.8821
 308  589.6946
 309  657.9231
 310  700.7861
 311  571.6111
 312  512.2439
 313  555.3883
 314  641.4391
 315  578.0335
 316  572.9628
 317  618.2879
 318  501.4658
 319  497.1506
 320  385.1699
 321  511.4416
 322  594.7017
 323  540.6788
 324  488.5293
 325  582.9987
 326  534.3282
 327  498.701
 328  473.1401
 329  489.6931
 330  489.4419
 331  450.3767
 332  496.7989
 333  508.2303
 334  458.4979
 335  511.4558
 336  511.9764
 337  532.6595
 338  608.2597
 339  540.0253
 340  502.9911
 341  570.8997
 342  533.9663
 343  553.5929
 344  694.4135
 345  750.1364
 346  855.111
 347  855.9287
 348  767.2067
 349  854.0469
 350  887.0052
 351  1066.546
 352  1154.476
 353  1329.85
 354  1458.233
 355  1285.74
 356  1039.081
 357  799.9949
 358  673.5947
 359  723.2051
 360  688.961
 361  629.8036
 362  671.6161
 363  614.3729
 364  622.7917
 365  704.9614
 366  686.2385
 367  640.8973
 368  712.3441
 369  667.6157
 370  705.2343
 371  658.8608
 372  693.4897
 373  617.4113
 374  661.8897
 375  709.2339
 376  653.0162
 377  582.879
 378  551.9379
 379  539.2676
 380  613.1512
 381  731.7539
 382  714.5923
 383  685.9557
 384  582.1248
 385  534.3293
 386  605.827
 387  594.7797
 388  565.7645
 389  587.8204
 390  592.2528
 391  526.3697
 392  564.7451
 393  629.3129
 394  557.3667
 395  546.9086
 396  530.2015
 397  487.297
 398  530.0521
 399  608.2177
 400  527.7666
 401  532.0674
 402  442.6099
 403  511.4415
 404  501.0226
 405  534.8969
 406  597.7438
 407  601.0649
 408  637.7706
 409  471.6209
 410  458.7256
 411  489.9473
 412  582.8387
 413  745.0035
 414  697.7709
 415  626.6435
 416  560.1241
 417  598.1874
 418  746.5663
 419  690.0551
 420  710.6901
 421  739.4825
 422  663.1376
 423  613.6988
 424  604.9275
 425  676.366
 426  703.4722
 427  773.0152
 428  729.2151
 429  726.3856
 430  640.4529
 431  633.1913
 432  690.5793
 433  696.3719
 434  626.9481
 435  622.3911
 436  720.6335
 437  665.3668
 438  573.394
 439  540.585
 440  658.0815
 441  622.5819
 442  599.0236
 443  549.4371
 444  631.5947
 445  664.675
 446  627.2569
 447  650.5118
 448  668.897
 449  656.388
 450  624.3737
 451  621.7491
 452  746.5507
 453  685.1071
 454  663.2031
 455  695.1824
 456  596.2552
 457  559.4668
 458  562.7244
 459  556.9123
 460  522.317
 461  461.8864
 462  461.2652
 463  518.4636
 464  554.0475
 465  610.3038
 466  505.2517
 467  506.2772
 468  596.2969
 469  561.9388
 470  528.2776
 471  538.9161
 472  587.4026
 473  613.0367
 474  569.2087
 475  607.6563
 476  596.632
 477  611.6399
 478  626.4432
 479  595.3088
 480  604.8953
 481  607.1387
 482  621.9125
 483  641.3912
 484  616.5143
 485  658.7573
 486  654.8172
 487  636.0364
 488  641.9059
 489  629.9139
 490  663.5662
 491  688.3992
 492  608.7937
 493  513.9061
 494  586.1321
 495  672.1695
 496  734.1589
 497  769.9805
 498  678.7737
 499  671.5253
 500  676.1137
 501  724.0004
 502  759.9489
 503  745.5883
 504  638.4679
 505  627.6302
 506  636.1444
 507  664.1454
 508  615.5784
 509  580.7016
 510  598.3025
 511  578.9161
