# Input file       =  1208584535.106913_cleaned.dat
# Candidate        =  PSR_0332+5434
# Telescope        =  AR
# Epoch_topo       =  58232.247154015196
# Epoch_bary       =  N/A
# T_sample         =  0.002
# Data Folded      =  7143424
# Data Avg         =  0.046800175536668
# Data StdDev      =  1.00002143611501 
# Profile Bins     =  512
# Profile Avg      =  652.928932722503 
# Profile StdDev   =  118.121116485429 
# Reduced chi-sqr  =  2.113
# Prob(Noise)      <  6.87e-43   (~13.7 sigma)
# P_topo (ms)      =  714.552626671264  +/- 0.000119
# P'_topo (s/s)    =  -0                +/- 6.48e-11
# P''_topo (s/s^2) =  0                 +/- 2.94e-14
# P_bary (ms)      =  N/A
# P'_bary (s/s)    =  N/A
# P''_bary (s/s^2) =  N/A
# P_orb (s)        =  N/A
# asin(i)/c (s)    =  N/A
# eccentricity     =  N/A
# w (rad)          =  N/A
# T_peri           =  N/A
######################################################
   0  661.5159
   1  648.527
   2  686.0361
   3  617.222
   4  673.9631
   5  596.9506
   6  603.9593
   7  543.1197
   8  501.7143
   9  483.4255
  10  580.483
  11  748.9595
  12  670.6574
  13  523.8027
  14  595.3125
  15  516.351
  16  462.5465
  17  547.5835
  18  696.93
  19  680.1279
  20  688.2543
  21  583.9601
  22  512.4041
  23  493.8861
  24  622.4086
  25  548.4822
  26  514.6041
  27  606.8436
  28  527.0682
  29  449.9728
  30  406.0018
  31  496.0881
  32  447.2954
  33  418.0602
  34  542.0441
  35  664.6591
  36  594.9552
  37  431.5539
  38  378.3685
  39  420.2721
  40  563.4229
  41  570.4174
  42  588.7159
  43  589.0851
  44  672.406
  45  651.7842
  46  614.3488
  47  550.4951
  48  550.3795
  49  547.2558
  50  580.1125
  51  646.803
  52  701.3948
  53  692.4402
  54  670.8483
  55  691.4166
  56  759.5639
  57  642.5099
  58  685.3477
  59  817.0731
  60  935.3025
  61  1225.555
  62  1392.939
  63  1445.553
  64  1533.251
  65  1426.927
  66  1191.16
  67  961.0974
  68  837.2067
  69  733.7997
  70  721.2612
  71  785.8159
  72  593.2947
  73  633.4703
  74  652.9161
  75  686.8505
  76  750.8435
  77  826.7335
  78  845.4814
  79  704.0162
  80  692.755
  81  689.5845
  82  649.65
  83  586.4301
  84  788.9084
  85  758.153
  86  808.0901
  87  724.4472
  88  636.8591
  89  708.532
  90  664.5511
  91  513.854
  92  585.734
  93  708.2128
  94  772.6765
  95  663.4216
  96  639.6682
  97  566.8598
  98  449.5812
  99  536.0296
 100  573.3163
 101  635.8892
 102  612.9759
 103  748.6755
 104  663.728
 105  620.4734
 106  608.4252
 107  576.3522
 108  629.8717
 109  671.3614
 110  662.3878
 111  701.5984
 112  637.3284
 113  583.0874
 114  610.3987
 115  589.2596
 116  539.0482
 117  610.6059
 118  566.8734
 119  670.9492
 120  690.8341
 121  545.7404
 122  484.2983
 123  637.2288
 124  526.9879
 125  513.6359
 126  642.4125
 127  624.0085
 128  599.2309
 129  546.869
 130  550.3739
 131  594.1416
 132  516.371
 133  595.1214
 134  590.1852
 135  571.6411
 136  578.0527
 137  534.3297
 138  456.1775
 139  650.2736
 140  779.9916
 141  650.2997
 142  572.4265
 143  652.1046
 144  655.5298
 145  559.5362
 146  414.3093
 147  602.8282
 148  696.9404
 149  667.4486
 150  811.5098
 151  740.5704
 152  760.557
 153  781.8108
 154  633.4269
 155  507.5973
 156  552.1647
 157  612.2607
 158  541.3877
 159  582.0843
 160  689.1998
 161  652.9765
 162  461.0616
 163  510.2551
 164  631.3209
 165  533.4518
 166  623.6271
 167  623.4596
 168  751.3306
 169  720.5784
 170  696.1813
 171  624.9344
 172  618.3983
 173  614.3663
 174  516.1934
 175  584.7891
 176  695.9236
 177  653.8633
 178  643.8224
 179  668.9349
 180  642.5712
 181  710.798
 182  746.8522
 183  596.9329
 184  614.6104
 185  660.2903
 186  615.7098
 187  612.278
 188  646.9854
 189  657.7899
 190  493.7355
 191  585.2776
 192  765.0938
 193  644.666
 194  658.1222
 195  539.4505
 196  557.2429
 197  688.968
 198  706.9069
 199  670.8497
 200  689.0566
 201  748.2266
 202  655.9165
 203  597.873
 204  521.1918
 205  517.9882
 206  470.0529
 207  544.5297
 208  704.7839
 209  720.8217
 210  709.374
 211  707.379
 212  801.9318
 213  752.2861
 214  690.9894
 215  706.3811
 216  874.6803
 217  865.1122
 218  801.8311
 219  713.4955
 220  677.5649
 221  648.7242
 222  642.1271
 223  667.9222
 224  665.6058
 225  721.1467
 226  968.5444
 227  700.6675
 228  610.9999
 229  637.1644
 230  647.8026
 231  731.9201
 232  720.0715
 233  890.5179
 234  973.0814
 235  872.4909
 236  744.2742
 237  707.8359
 238  729.5312
 239  727.7449
 240  799.2336
 241  870.7074
 242  915.4308
 243  901.9628
 244  898.0936
 245  789.2958
 246  751.4025
 247  756.5374
 248  768.4451
 249  768.7396
 250  881.6884
 251  898.5521
 252  854.6188
 253  784.2015
 254  778.7325
 255  767.335
 256  661.827
 257  684.3876
 258  666.303
 259  618.5314
 260  556.9694
 261  619.9958
 262  669.4273
 263  667.1321
 264  697.1998
 265  761.2104
 266  834.1821
 267  690.8777
 268  642.2653
 269  679.316
 270  604.032
 271  673.2147
 272  706.5532
 273  813.0732
 274  706.3953
 275  621.0975
 276  674.7229
 277  643.2299
 278  731.5438
 279  608.7147
 280  585.0052
 281  632.5342
 282  654.5449
 283  733.5784
 284  617.9296
 285  644.7239
 286  646.7867
 287  689.7865
 288  742.861
 289  630.1674
 290  487.6481
 291  526.6055
 292  661.8875
 293  651.124
 294  632.7479
 295  627.1182
 296  655.1337
 297  617.3462
 298  727.5343
 299  565.4528
 300  570.9318
 301  600.2123
 302  538.4944
 303  561.2521
 304  468.4644
 305  476.9633
 306  488.9717
 307  504.0876
 308  544.7407
 309  580.6116
 310  591.6947
 311  603.3135
 312  602.8292
 313  710.5732
 314  657.3807
 315  556.5519
 316  687.8039
 317  698.7462
 318  610.3282
 319  573.6219
 320  595.1568
 321  694.7661
 322  708.2437
 323  638.0749
 324  575.224
 325  700.6198
 326  651.3715
 327  494.4361
 328  533.4308
 329  561.3362
 330  645.7939
 331  594.7653
 332  637.2032
 333  738.9874
 334  684.7632
 335  549.6779
 336  474.6287
 337  539.1737
 338  535.6025
 339  513.7802
 340  670.1399
 341  824.2929
 342  671.8905
 343  600.6281
 344  681.5866
 345  518.3573
 346  558.4174
 347  743.7108
 348  623.6921
 349  651.6603
 350  639.8686
 351  548.8413
 352  441.6734
 353  465.0651
 354  584.9144
 355  629.9826
 356  602.9242
 357  577.0531
 358  579.5071
 359  626.4774
 360  689.3943
 361  589.1831
 362  557.4843
 363  537.7872
 364  611.1156
 365  656.4241
 366  688.1721
 367  614.1705
 368  610.7921
 369  591.3727
 370  582.3774
 371  642.9933
 372  556.0841
 373  586.746
 374  622.8435
 375  640.9399
 376  452.9616
 377  512.2626
 378  672.5231
 379  728.7197
 380  744.332
 381  792.3483
 382  775.723
 383  780.5256
 384  817.2737
 385  598.603
 386  550.1545
 387  669.1659
 388  539.6367
 389  562.134
 390  703.3211
 391  814.1325
 392  768.4716
 393  762.9856
 394  682.1557
 395  573.8329
 396  627.1865
 397  715.2864
 398  624.6808
 399  625.1269
 400  713.8871
 401  696.558
 402  572.8596
 403  641.0007
 404  591.0823
 405  609.3462
 406  585.0012
 407  608.5204
 408  780.1616
 409  717.3368
 410  617.0413
 411  687.0961
 412  580.2652
 413  676.1029
 414  711.3078
 415  754.521
 416  738.9445
 417  754.3046
 418  740.7832
 419  800.3316
 420  764.7744
 421  681.9187
 422  563.2846
 423  661.6755
 424  724.1603
 425  803.9726
 426  779.1749
 427  722.9847
 428  665.085
 429  676.5143
 430  669.5439
 431  680.9908
 432  645.6718
 433  688.647
 434  574.6924
 435  571.7663
 436  647.8066
 437  628.3255
 438  563.6971
 439  651.859
 440  699.0458
 441  587.8778
 442  646.3804
 443  648.0919
 444  724.5514
 445  718.0878
 446  551.5448
 447  725.2622
 448  698.8629
 449  697.1494
 450  680.5344
 451  693.0497
 452  705.3655
 453  564.9538
 454  532.6392
 455  603.6959
 456  511.4301
 457  554.1761
 458  625.2487
 459  607.7477
 460  445.5654
 461  446.9121
 462  494.7943
 463  613.5219
 464  568.2904
 465  591.9581
 466  741.7131
 467  589.6398
 468  534.3791
 469  632.824
 470  697.0626
 471  665.2288
 472  540.2104
 473  666.6415
 474  688.5397
 475  637.0558
 476  532.5657
 477  585.2441
 478  630.5765
 479  661.693
 480  715.5065
 481  758.4038
 482  822.9324
 483  783.0955
 484  705.4948
 485  559.0498
 486  545.9724
 487  592.9444
 488  545.1575
 489  616.4108
 490  680.8389
 491  589.7269
 492  473.0162
 493  604.6311
 494  708.5918
 495  638.6967
 496  616.871
 497  662.4949
 498  699.5608
 499  653.6534
 500  637.0969
 501  699.4663
 502  681.2615
 503  738.2482
 504  645.7631
 505  712.2936
 506  771.2919
 507  609.1432
 508  556.0864
 509  663.495
 510  605.5134
 511  624.9781
