# Input file       =  1208584535.106913_cleaned.dat
# Candidate        =  PSR_0332+5434
# Telescope        =  AR
# Epoch_topo       =  58232.247154015196
# Epoch_bary       =  N/A
# T_sample         =  0.002
# Data Folded      =  7143424
# Data Avg         =  0.343325055565325
# Data StdDev      =  5.9593222658597  
# Profile Bins     =  512
# Profile Avg      =  4790.00522647859 
# Profile StdDev   =  703.906710514621 
# Reduced chi-sqr  =  1.591
# Prob(Noise)      <  3.56e-16   (~8.1 sigma)
# P_topo (ms)      =  714.55262646086   +/- 2.64e-05
# P'_topo (s/s)    =  -0                +/- 1.43e-11
# P''_topo (s/s^2) =  0                 +/- 6.49e-15
# P_bary (ms)      =  N/A
# P'_bary (s/s)    =  N/A
# P''_bary (s/s^2) =  N/A
# P_orb (s)        =  N/A
# asin(i)/c (s)    =  N/A
# eccentricity     =  N/A
# w (rad)          =  N/A
# T_peri           =  N/A
######################################################
   0  4588.785
   1  4914.569
   2  4766.088
   3  4282.609
   4  4657.923
   5  4204.57
   6  4662.443
   7  5181.603
   8  5325.531
   9  5495.553
  10  5131.821
  11  4957.025
  12  4572.395
  13  4518.64
  14  4623.333
  15  3795.408
  16  3955.597
  17  4495.807
  18  5067.116
  19  4453.61
  20  4169.297
  21  4380.531
  22  4517.402
  23  4993.587
  24  5058.661
  25  5448.358
  26  5387.458
  27  5170.551
  28  4113.143
  29  3736.93
  30  3800.593
  31  3775.07
  32  3987.384
  33  4680.413
  34  5521.436
  35  4953.312
  36  4639.943
  37  4358.942
  38  4759.986
  39  4908.742
  40  4823.318
  41  5429.472
  42  5663.18
  43  5827.246
  44  4841.495
  45  4283.022
  46  4390.693
  47  4488.416
  48  4857.292
  49  4857.976
  50  5464.041
  51  5404.466
  52  4408.82
  53  3815.145
  54  4064.01
  55  4423.063
  56  4841.44
  57  5255.495
  58  5603.887
  59  6012.652
  60  5212.113
  61  4269.928
  62  3953.003
  63  4360.234
  64  4233.302
  65  4020.936
  66  5255.53
  67  5639.409
  68  4966.345
  69  4702.688
  70  4347.061
  71  4320.16
  72  4892.37
  73  4877.891
  74  5098.657
  75  5592.874
  76  5298.697
  77  4425.13
  78  3818.302
  79  3906.935
  80  4266.947
  81  3965.381
  82  4155.412
  83  4779.993
  84  4845.48
  85  4882.012
  86  4479.282
  87  4391.813
  88  4251.164
  89  4187.509
  90  4815.923
  91  5146.556
  92  5664.144
  93  5125.732
  94  4534.044
  95  3922.039
  96  4254.274
  97  3973.282
  98  4018.976
  99  4675.733
 100  4854.558
 101  4609.604
 102  3545.905
 103  4322.759
 104  4524.99
 105  4785.872
 106  5108.582
 107  5346.925
 108  6165.329
 109  6125.454
 110  5342.089
 111  3947.559
 112  4367.319
 113  4494.38
 114  4239.24
 115  4674.861
 116  5531.257
 117  5676.245
 118  4763.146
 119  4552.835
 120  4212.727
 121  4544.391
 122  5048.156
 123  5378.981
 124  5665.128
 125  5685.499
 126  5678.624
 127  4592.671
 128  4083.927
 129  4420.269
 130  3991.007
 131  4425.902
 132  4656.43
 133  5752.875
 134  5628.552
 135  4603.617
 136  4455.009
 137  4335.265
 138  4769.852
 139  4971.205
 140  5488.826
 141  5768.051
 142  6213.167
 143  5360.348
 144  4670.078
 145  4803.373
 146  4750.071
 147  4231.79
 148  4374.536
 149  5575.045
 150  5762.403
 151  5263.367
 152  4887.326
 153  4819.787
 154  4924.225
 155  4665.178
 156  4925.923
 157  5229.883
 158  5459.189
 159  5204.149
 160  4546.335
 161  4226.302
 162  4328.522
 163  4091.618
 164  3790.64
 165  4290.92
 166  4962.503
 167  4849.821
 168  5003.972
 169  4168.042
 170  4881.453
 171  4391.334
 172  4603.487
 173  5318.302
 174  5437.488
 175  5765.073
 176  5114.32
 177  4562.903
 178  3943.324
 179  4051.882
 180  3971.766
 181  4239.11
 182  4723.938
 183  4845.37
 184  4505.366
 185  3697.559
 186  4006.864
 187  4336.435
 188  4627.94
 189  5008.125
 190  5151.136
 191  5746.793
 192  5404.984
 193  4354.962
 194  4044.784
 195  4479.11
 196  4899.479
 197  4149.982
 198  4520.569
 199  4996.344
 200  4981.433
 201  3987.032
 202  4198.131
 203  4560.835
 204  4806.049
 205  5440.537
 206  5647.717
 207  6186.977
 208  5951.19
 209  5437.167
 210  4596.749
 211  4194.815
 212  4712.784
 213  4331.066
 214  4677.999
 215  5332.686
 216  5553.437
 217  4581.961
 218  4029.454
 219  4481.904
 220  4624.245
 221  4831.773
 222  5117.726
 223  5800.602
 224  5563.113
 225  5202.806
 226  4815.196
 227  4313.7
 228  4727.321
 229  4619.342
 230  4471.847
 231  5073.457
 232  5519.97
 233  4960.804
 234  4471.961
 235  4507.838
 236  4246.443
 237  4765.827
 238  4698.974
 239  5232.833
 240  5580.378
 241  5510.119
 242  5045.112
 243  4051.976
 244  4047.24
 245  3698.48
 246  3613.455
 247  3796.187
 248  4887.015
 249  5501.354
 250  4352.312
 251  4230.855
 252  4232.858
 253  3783.473
 254  3842.814
 255  4510.12
 256  5135.571
 257  5506.172
 258  5200.906
 259  4305.819
 260  3451.768
 261  3621.24
 262  4127.964
 263  3724.325
 264  4244.314
 265  4953.809
 266  4158.341
 267  3621.775
 268  3354.168
 269  4119.417
 270  3985.191
 271  4320.897
 272  5176.796
 273  5216.425
 274  5151.784
 275  4113.293
 276  3504.433
 277  3738.713
 278  4204.746
 279  4287.675
 280  4032.077
 281  4725.335
 282  4821.926
 283  4684.23
 284  4064.397
 285  4354.765
 286  4572.521
 287  4648.661
 288  5173.963
 289  5345.847
 290  5495.946
 291  5102.069
 292  4879.734
 293  4840.753
 294  4752.642
 295  4812.338
 296  4985.079
 297  5301.736
 298  6302.839
 299  7028.9
 300  6586.492
 301  6731.902
 302  6562.176
 303  6464.002
 304  6198.276
 305  5882.777
 306  6116.26
 307  5424.336
 308  5314.877
 309  4478.495
 310  4109.75
 311  4754.188
 312  4395.431
 313  4809.514
 314  5536.896
 315  5843.705
 316  5069.804
 317  4483.534
 318  4532.221
 319  4640.03
 320  4572.553
 321  5223.312
 322  5881.347
 323  6184.804
 324  5923.213
 325  4704.607
 326  3872.028
 327  3986.784
 328  3644.019
 329  3802.182
 330  4560.833
 331  5503.659
 332  5381.579
 333  4549.212
 334  4195.918
 335  3654.974
 336  4003.783
 337  4429.867
 338  4705.298
 339  5455.096
 340  5841.388
 341  5160.101
 342  4336.961
 343  4037.523
 344  4046.93
 345  3986.335
 346  4290.584
 347  4748.485
 348  5052.411
 349  4432.485
 350  4259.646
 351  4248.374
 352  4368.081
 353  4405.994
 354  4406.628
 355  4844.509
 356  5160.432
 357  5298.67
 358  4516.552
 359  3761.215
 360  4190.854
 361  4354.222
 362  4022.283
 363  4427.665
 364  4876.724
 365  4634.61
 366  4138.165
 367  3775.559
 368  4525.227
 369  4453.798
 370  4621.512
 371  5227.703
 372  5231.059
 373  5524.252
 374  5087.955
 375  4186.949
 376  4324.089
 377  5009.871
 378  5028.306
 379  4346.618
 380  5348.124
 381  5332.657
 382  5026.707
 383  3914.061
 384  4053.042
 385  4757.57
 386  4905.159
 387  5597.885
 388  5834.087
 389  6298.401
 390  5983.468
 391  4950.857
 392  4047.395
 393  3915.814
 394  4499.646
 395  4165.449
 396  4607.201
 397  5238.246
 398  5393.051
 399  4531.157
 400  3673.81
 401  4290.018
 402  4510.943
 403  4804.061
 404  5253.549
 405  6017.879
 406  6097.83
 407  5420.937
 408  4544.421
 409  4136.793
 410  4377.089
 411  3876.359
 412  4033.455
 413  4947.458
 414  5459.616
 415  5061.172
 416  4580.39
 417  4617.899
 418  4496.076
 419  5002.159
 420  4999.338
 421  4895.535
 422  5409.328
 423  5286.758
 424  4549.539
 425  3982.501
 426  4444.366
 427  4011.439
 428  3735.131
 429  4399.735
 430  5062.232
 431  4807.965
 432  4073.881
 433  4044.475
 434  4234.22
 435  4763.083
 436  4953.019
 437  4900.26
 438  5542.235
 439  5503.226
 440  5348.499
 441  4294.193
 442  4077.824
 443  4176.219
 444  3948.773
 445  4259.25
 446  4978.924
 447  5584.514
 448  4866.453
 449  4696.363
 450  4530.169
 451  4963.153
 452  4964.381
 453  5531.644
 454  6447.252
 455  6177.099
 456  6158.732
 457  5151.087
 458  4237.641
 459  4422.39
 460  4362.288
 461  4669.653
 462  4783.35
 463  6156.626
 464  5766.51
 465  4685.519
 466  4414.799
 467  4481.768
 468  4733.578
 469  4967.335
 470  5455.857
 471  6060.088
 472  6513.29
 473  5748.778
 474  4876.886
 475  4685.12
 476  4766.859
 477  4911.841
 478  4998.159
 479  6009.562
 480  6199.387
 481  5648.175
 482  4871.829
 483  4671.94
 484  4892.675
 485  4901.847
 486  5165.146
 487  5855.552
 488  6513.155
 489  6123.534
 490  5126.182
 491  4474.442
 492  4507.124
 493  4720.641
 494  4496.506
 495  4876.971
 496  5102.279
 497  4698.055
 498  4607.958
 499  4304.783
 500  4732.291
 501  4796.996
 502  4968.738
 503  5525.397
 504  5583.577
 505  5480.137
 506  5134.605
 507  4366.033
 508  4235.594
 509  4504.311
 510  4732.6
 511  4561.304
