# Input file       =  1208928641.108855_cleaned.dat
# Candidate        =  PSR_0332+5434
# Telescope        =  AR
# Epoch_topo       =  58236.229862371008
# Epoch_bary       =  N/A
# T_sample         =  0.002
# Data Folded      =  7208960
# Data Avg         =  0.265957529715853
# Data StdDev      =  5.63604302384678 
# Profile Bins     =  1024
# Profile Avg      =  1872.29734371458 
# Profile StdDev   =  472.890543366253 
# Reduced chi-sqr  =  1.380
# Prob(Noise)      <  6.38e-15   (~7.7 sigma)
# P_topo (ms)      =  714.549182904766  +/- 3.16e-05
# P'_topo (s/s)    =  -0                +/- 1.7e-11
# P''_topo (s/s^2) =  0                 +/- 7.63e-15
# P_bary (ms)      =  N/A
# P'_bary (s/s)    =  N/A
# P''_bary (s/s^2) =  N/A
# P_orb (s)        =  N/A
# asin(i)/c (s)    =  N/A
# eccentricity     =  N/A
# w (rad)          =  N/A
# T_peri           =  N/A
######################################################
   0  2128.3
   1  2197.614
   2  1960.27
   3  1820.07
   4  1737.294
   5  1648.072
   6  1605.055
   7  1554.514
   8  1744.194
   9  1759.195
  10  1713.902
  11  1825.881
  12  1727.876
  13  1957.091
  14  2107.882
  15  2027.496
  16  2010.567
  17  1804.411
  18  1687.354
  19  1624.975
  20  1460.976
  21  1584.256
  22  1408.499
  23  1553.172
  24  1552.612
  25  1408.244
  26  1618.614
  27  1844.397
  28  1980.841
  29  1989.298
  30  2039.239
  31  2235.514
  32  2098.264
  33  2138.857
  34  2184.207
  35  2067.939
  36  2151.441
  37  2120.901
  38  2020.382
  39  1883.623
  40  1698.217
  41  1888.931
  42  1734.059
  43  1691.976
  44  1706.92
  45  1726.833
  46  1936.992
  47  1858.995
  48  1891.912
  49  2085.488
  50  1947.789
  51  1951.925
  52  1626.68
  53  1503.5
  54  1471.556
  55  1454.229
  56  1703.08
  57  1419.509
  58  1246.804
  59  1581.615
  60  1655.927
  61  1896.709
  62  1992.616
  63  2292.049
  64  2372.956
  65  2181.198
  66  2281.833
  67  2212.132
  68  2114.261
  69  2327.308
  70  2116.442
  71  1963.714
  72  1634.386
  73  1574.579
  74  1635.23
  75  1490.483
  76  1721.044
  77  1739.669
  78  1847.005
  79  1964.935
  80  1836.817
  81  2057.334
  82  1996.932
  83  1947.703
  84  1915.291
  85  1884.91
  86  1733.214
  87  1617.395
  88  1574.237
  89  1633.439
  90  1282.901
  91  1551.896
  92  1884.629
  93  1951.806
  94  1920.614
  95  1989.786
  96  2204.215
  97  2218.763
  98  2263.21
  99  2310.881
 100  2192.79
 101  2251.465
 102  2356.872
 103  2145.815
 104  2199.302
 105  2128.232
 106  2159.087
 107  1914.656
 108  1828.144
 109  2043.795
 110  2015.192
 111  1950.023
 112  1805.547
 113  1818.33
 114  1965.762
 115  1738.233
 116  1688.342
 117  1865.94
 118  1886.778
 119  1979.277
 120  1780.609
 121  1863.042
 122  1742.389
 123  1578.176
 124  1849.791
 125  1819.38
 126  1952.304
 127  2219.497
 128  2311.72
 129  2167.795
 130  1940.462
 131  2202.834
 132  2397.329
 133  2294.101
 134  2417.315
 135  2346.42
 136  2179.649
 137  2056.831
 138  1940.381
 139  1989.138
 140  1828.421
 141  1943.173
 142  1987.712
 143  1917.273
 144  1956.156
 145  1831.24
 146  1964.81
 147  1972.752
 148  1837.215
 149  1772.87
 150  1716.384
 151  1580.81
 152  1618.125
 153  1662.727
 154  1792.373
 155  1483.991
 156  1561.825
 157  1759.775
 158  1799.789
 159  2073.501
 160  2443.72
 161  2660.183
 162  2499.628
 163  2311.752
 164  2241.553
 165  2009.863
 166  2000.732
 167  2233.186
 168  2147.59
 169  2115.574
 170  1897.117
 171  1862.157
 172  1718.602
 173  1636.473
 174  1826.774
 175  1624.104
 176  1645.914
 177  1720.123
 178  1897.612
 179  2070.556
 180  1897.544
 181  1853.754
 182  1799.986
 183  1628.059
 184  1730.759
 185  1744.646
 186  1782.296
 187  1625.107
 188  1429.252
 189  1763.272
 190  1711.794
 191  1654.558
 192  1981.775
 193  2274.992
 194  2509.94
 195  2391.901
 196  2480.781
 197  2514.337
 198  2317.684
 199  2571.144
 200  2451.754
 201  2233.116
 202  2092.375
 203  2015.48
 204  1890.759
 205  1458.629
 206  1367.742
 207  1413.515
 208  1296.188
 209  1537.508
 210  1733.757
 211  2017.96
 212  2166.109
 213  1859.681
 214  1952.668
 215  1924.365
 216  1914.817
 217  1914.351
 218  1655.867
 219  1518.547
 220  1274.678
 221  1234.905
 222  1338.216
 223  1053.036
 224  1358.906
 225  1835.816
 226  1963.998
 227  1959.066
 228  2056.908
 229  2443.985
 230  2365.331
 231  2223.595
 232  2430.182
 233  2346.044
 234  2337.978
 235  2186.621
 236  2064.468
 237  1899.114
 238  1500.422
 239  1505.864
 240  1508.862
 241  1504.567
 242  1609.714
 243  1549.315
 244  1897.17
 245  1834.962
 246  1706.867
 247  1808.379
 248  1757.722
 249  1787.738
 250  1901.988
 251  1810.109
 252  1742.366
 253  1314.883
 254  1495.456
 255  1357.502
 256  1231.115
 257  1546.497
 258  1630.309
 259  1700.865
 260  1696.566
 261  1957.978
 262  2161.672
 263  2006.368
 264  2160.551
 265  2309.965
 266  2169.852
 267  2310.794
 268  2304.292
 269  2185.486
 270  1862.787
 271  1692.242
 272  1797.989
 273  1691.066
 274  1570.666
 275  1482.192
 276  1472.357
 277  1602.781
 278  1477.651
 279  1543.191
 280  1726.022
 281  1629.353
 282  1648.605
 283  1709.575
 284  1859.437
 285  1887.944
 286  1656.064
 287  1674.071
 288  1366.243
 289  1333.112
 290  1660.961
 291  1800.986
 292  1879.644
 293  1982.032
 294  2163.214
 295  2088.184
 296  1921.4
 297  2100.729
 298  2109.894
 299  2158.676
 300  2242.424
 301  2081.087
 302  1963.707
 303  1758.383
 304  1854.64
 305  1836.803
 306  1738.214
 307  1851.907
 308  1895.821
 309  2083.697
 310  2101.329
 311  1798.917
 312  1770.426
 313  1694.002
 314  1654.537
 315  1809.597
 316  1854.49
 317  1906.885
 318  1705.474
 319  1776.416
 320  1884.864
 321  1675.208
 322  1966.991
 323  2091.53
 324  1980.85
 325  1908.936
 326  1934.223
 327  2215.238
 328  2156.38
 329  2397.154
 330  2381.073
 331  2140.149
 332  2192.781
 333  2086.525
 334  1984.649
 335  1770.17
 336  1714.463
 337  1688.373
 338  1452.454
 339  1359.764
 340  1598.635
 341  1809.323
 342  2071.878
 343  2064.136
 344  2140.225
 345  2143.329
 346  1838.765
 347  1774.777
 348  1655.545
 349  1482.557
 350  1512.063
 351  1444.834
 352  1647.806
 353  1385.484
 354  1476.042
 355  1802.222
 356  1740.3
 357  1883.889
 358  2156.473
 359  2392.518
 360  2427.139
 361  2371.501
 362  2527.301
 363  2378.013
 364  2223.914
 365  2370.242
 366  2161.516
 367  1954.319
 368  1828.688
 369  1712.896
 370  1607.506
 371  1338.43
 372  1469.502
 373  1403.398
 374  1423.46
 375  1728.867
 376  1879.643
 377  2080.732
 378  1987.712
 379  1952.456
 380  2034.221
 381  1928.294
 382  1924.447
 383  1839.057
 384  1769.802
 385  1660.674
 386  1305.167
 387  1409.2
 388  1403.303
 389  1246.685
 390  1418.168
 391  1701.536
 392  1971.364
 393  2081.121
 394  2232.329
 395  2372.9
 396  2207.042
 397  2282.028
 398  2403.747
 399  2180.564
 400  2178.918
 401  2050.231
 402  2110.439
 403  1873.781
 404  1576.733
 405  1493.128
 406  1412.909
 407  1551.272
 408  1758.697
 409  1762.598
 410  2107.898
 411  1888.379
 412  1839.71
 413  1760.984
 414  1733.684
 415  1916.956
 416  1983.939
 417  1924.361
 418  1707.632
 419  1377.962
 420  1736.292
 421  1533.641
 422  1482.133
 423  1629.424
 424  1757.211
 425  1993.281
 426  2149.234
 427  2416.901
 428  2297.718
 429  2093.032
 430  2280.815
 431  2389.388
 432  2253.818
 433  2203.323
 434  1901.431
 435  1860.761
 436  1666.416
 437  1712.799
 438  1784.892
 439  1681.607
 440  1748.731
 441  1619.092
 442  1681.146
 443  1869.327
 444  1751.802
 445  1898.771
 446  1819.347
 447  1788.309
 448  1908.385
 449  1875.828
 450  1915.506
 451  1667.917
 452  1639.48
 453  1758.586
 454  1646.851
 455  1849.19
 456  2080.134
 457  2000.774
 458  2034.995
 459  2018.156
 460  2202.198
 461  2007.805
 462  2144.831
 463  2430.39
 464  2247.55
 465  2205.406
 466  2242.099
 467  2345.895
 468  2190.86
 469  1913.745
 470  1892.807
 471  1861.586
 472  1876.412
 473  1996.844
 474  1900.586
 475  2100.089
 476  2079.407
 477  1986.511
 478  1897.887
 479  1690.579
 480  1789.584
 481  2049.539
 482  2015.765
 483  1857.122
 484  1563.543
 485  1744.619
 486  1585.705
 487  1494.496
 488  1870.799
 489  2026.055
 490  2131.381
 491  2108.491
 492  2299.493
 493  2366.807
 494  2290.795
 495  2511.24
 496  2591.996
 497  2454.575
 498  2519.271
 499  2303.34
 500  2053.885
 501  1643.819
 502  1617.177
 503  1702.502
 504  1558.474
 505  1671.504
 506  1778.166
 507  1766.653
 508  1932.455
 509  1893.712
 510  2118.895
 511  2016.272
 512  1779.024
 513  1747.464
 514  1687.356
 515  1605.809
 516  1520.361
 517  1514.872
 518  1471.955
 519  1229.75
 520  1324.859
 521  1627.144
 522  1618.934
 523  1746.313
 524  2052.487
 525  2314.609
 526  2285.754
 527  2224.455
 528  2308.807
 529  2102.982
 530  2083.32
 531  2135.768
 532  1864.071
 533  1856.553
 534  1771.715
 535  1756.079
 536  1620.411
 537  1415.959
 538  1598.682
 539  1543.036
 540  1610.451
 541  1781.002
 542  1733.098
 543  2054.634
 544  1832.858
 545  1788.651
 546  1803.003
 547  1723.257
 548  1808.206
 549  1662.594
 550  1738.694
 551  1474.935
 552  1064.474
 553  1229.536
 554  1295.632
 555  1504.998
 556  1840.258
 557  2092.899
 558  2260.923
 559  2100.558
 560  2196.807
 561  2166.558
 562  2007.487
 563  2308.438
 564  2415.632
 565  2135.028
 566  1866.342
 567  1646.054
 568  1827.112
 569  1568.964
 570  1354.998
 571  1392.273
 572  1256.588
 573  1464.239
 574  1522.567
 575  1873.799
 576  2186.404
 577  2061.396
 578  2168.198
 579  2053.133
 580  1785.136
 581  1651.106
 582  1547.969
 583  1700.645
 584  1406.487
 585  1434.884
 586  1724.554
 587  1473.232
 588  1550.958
 589  1805.75
 590  2260.941
 591  2307.618
 592  2339.952
 593  2682.792
 594  2648.919
 595  2680.926
 596  2892.677
 597  2913.443
 598  2923.635
 599  2795.621
 600  2871.461
 601  2853.967
 602  2709.934
 603  2799.776
 604  2825.827
 605  2690.48
 606  2592.817
 607  2138.827
 608  2098.627
 609  1805.806
 610  1663.25
 611  1785.815
 612  1689.388
 613  1739.155
 614  1720.183
 615  1814.528
 616  1874.093
 617  1566.989
 618  1806.797
 619  1783.872
 620  1694.045
 621  1897.703
 622  1941.08
 623  2010.324
 624  1960.426
 625  2184.036
 626  2248.242
 627  2121.265
 628  2316.6
 629  2489.022
 630  2283.103
 631  2367.351
 632  2233.297
 633  2307.646
 634  2091.26
 635  1954.33
 636  1802.88
 637  1502.863
 638  1539.749
 639  1683.694
 640  1830.04
 641  1992.953
 642  1795.539
 643  1827.474
 644  1786.034
 645  1544.725
 646  1448.908
 647  1337.678
 648  1463.581
 649  1481.113
 650  1451.366
 651  1624.863
 652  1358.737
 653  1273.59
 654  1624.185
 655  1698.016
 656  1989.033
 657  1982.212
 658  2440.78
 659  2259.682
 660  2168.86
 661  2274.635
 662  2172.238
 663  2085.389
 664  1997.576
 665  1858.17
 666  1604.143
 667  1334.715
 668  1483.354
 669  1603.844
 670  1623.382
 671  1642.806
 672  1685.479
 673  1854.712
 674  2013.272
 675  1863.934
 676  1816.986
 677  1677.768
 678  1545.184
 679  1625.978
 680  1668.486
 681  1843.742
 682  1611.001
 683  1596.753
 684  1520.389
 685  1257.815
 686  1475.157
 687  1793.937
 688  1965.706
 689  2228.49
 690  2247.576
 691  2314.24
 692  1989.304
 693  2180.932
 694  2321.78
 695  2211.32
 696  2247.348
 697  2161.876
 698  2024.315
 699  1746.852
 700  1459.459
 701  1516.559
 702  1424.045
 703  1560.7
 704  1800.051
 705  1940.343
 706  2123.482
 707  2038.237
 708  1991.389
 709  2059.288
 710  1759.245
 711  1681.605
 712  1535.448
 713  1414.647
 714  1485.814
 715  1434.594
 716  1707.022
 717  1401.481
 718  1301.702
 719  1664.714
 720  1720.871
 721  1878.51
 722  1988.164
 723  2224.233
 724  2217.482
 725  2005.842
 726  2185.723
 727  2193.66
 728  2195.304
 729  2375.081
 730  2123.48
 731  1901.706
 732  1711.998
 733  1787.031
 734  1877.122
 735  1611.336
 736  1738.844
 737  1747.903
 738  1782.992
 739  1970.602
 740  1977.985
 741  2232.343
 742  2018.024
 743  1850.189
 744  1953.535
 745  1926.291
 746  1905.535
 747  1644.488
 748  1585.808
 749  1577.904
 750  1305.071
 751  1425.326
 752  1531.763
 753  1483.536
 754  1748.746
 755  2033.74
 756  2369.279
 757  2285.509
 758  2222.094
 759  2345.19
 760  2189.315
 761  2147.831
 762  2224.925
 763  2007.977
 764  2175.468
 765  1971.873
 766  1969.172
 767  1677.874
 768  1626.04
 769  1815.808
 770  1704.482
 771  1708.318
 772  1723.202
 773  1728.925
 774  2001.35
 775  1897.022
 776  1830.84
 777  1789.296
 778  1693.494
 779  1783.754
 780  1723.982
 781  1713.444
 782  1569.866
 783  1431.242
 784  1624.941
 785  1495.816
 786  1477.279
 787  1762.923
 788  1983.449
 789  2054.328
 790  1918.776
 791  2027.603
 792  2063.1
 793  1931.878
 794  2267.718
 795  2277.521
 796  2076.729
 797  1908.607
 798  1832.542
 799  1744.309
 800  1486.883
 801  1491.026
 802  1620.514
 803  1542.835
 804  1664.355
 805  1723.589
 806  1788.097
 807  1893.017
 808  1803.553
 809  1930.62
 810  1751.5
 811  1538.666
 812  1577.237
 813  1527.477
 814  1567.683
 815  1253.179
 816  1362.973
 817  1582.266
 818  1424.859
 819  1520.487
 820  1795.081
 821  1906.226
 822  2075.81
 823  2131.445
 824  2424.042
 825  2034.94
 826  2063.66
 827  2133.07
 828  2053.218
 829  1911.349
 830  1844.55
 831  1716.431
 832  1529.216
 833  1440.917
 834  1682.202
 835  1660.235
 836  1680.306
 837  1786.578
 838  1832.172
 839  2020.44
 840  1883.174
 841  1753.902
 842  1703.072
 843  1471.885
 844  1447.899
 845  1463.522
 846  1536.434
 847  1586.225
 848  1448.119
 849  1675.275
 850  1458.259
 851  1251.532
 852  1562.404
 853  1850.548
 854  2068.983
 855  1978.925
 856  2111.509
 857  2307.523
 858  2236.411
 859  2327.821
 860  2200.841
 861  1993.146
 862  2083.023
 863  1974.792
 864  1799.241
 865  1462.708
 866  1521.273
 867  1619.473
 868  1453.041
 869  1538.413
 870  1729.082
 871  1886.168
 872  1991.01
 873  1859.724
 874  2071.049
 875  2115.935
 876  1860.744
 877  1584.377
 878  1396.548
 879  1412.357
 880  1325.231
 881  1167.629
 882  1222.871
 883  1035.86
 884  1374.24
 885  1949.968
 886  2149.075
 887  2254.85
 888  2224.933
 889  2305.591
 890  2205.83
 891  2141.38
 892  2392.122
 893  2168.188
 894  2081.001
 895  2072.425
 896  1896.449
 897  1933.011
 898  1689.259
 899  1833.131
 900  1765.498
 901  1556.435
 902  1525.651
 903  1411.543
 904  1726.51
 905  1778.774
 906  1717.234
 907  2000.67
 908  2009.261
 909  1975.747
 910  1906.701
 911  1768.988
 912  1810.635
 913  1711.383
 914  1825.207
 915  1681.901
 916  1275.763
 917  1642.968
 918  1672.859
 919  1671.612
 920  1806.897
 921  2095.478
 922  2408.253
 923  2265.087
 924  2388.909
 925  2423.482
 926  2249.533
 927  2505.662
 928  2422.085
 929  2128.43
 930  1896.428
 931  1698.445
 932  1814.11
 933  1597.885
 934  1710.705
 935  1794.553
 936  1860.935
 937  2081.102
 938  1953.044
 939  1986.487
 940  2033.107
 941  1914.086
 942  2011.683
 943  1973.625
 944  1877.461
 945  1724.234
 946  1532.65
 947  1622.651
 948  1268.33
 949  1174.721
 950  1489.646
 951  1588.327
 952  1713.592
 953  1910.688
 954  2172.73
 955  2226.709
 956  2096.287
 957  2124.241
 958  1872.369
 959  1743.461
 960  2051.462
 961  2101.96
 962  2041.429
 963  1919.005
 964  1943.293
 965  1960.066
 966  1630.316
 967  1735.701
 968  1825.63
 969  2003.043
 970  2044.884
 971  1913.377
 972  2044.758
 973  1851.323
 974  1690.731
 975  1691.752
 976  1708.822
 977  1563.346
 978  1507.818
 979  1527.785
 980  1687.19
 981  1560.487
 982  1853.06
 983  1769.083
 984  1592.112
 985  1769.649
 986  2011.014
 987  2287.033
 988  2242.998
 989  2345.511
 990  2201.102
 991  1870.258
 992  1958.387
 993  2148.441
 994  2068.918
 995  2105.407
 996  1967.324
 997  1932.736
 998  1696.017
 999  1677.267
1000  1906.775
1001  1897.545
1002  2054.089
1003  2091.424
1004  2113.54
1005  2280.734
1006  2046.839
1007  1953.037
1008  1640.366
1009  1386.204
1010  1450.523
1011  1477.892
1012  1548.843
1013  1363.671
1014  1297.949
1015  1595.01
1016  1514.926
1017  1685.628
1018  2135.416
1019  2338.76
1020  2353.769
1021  2078.696
1022  2218.119
1023  2101.67
