# Input file       =  1209531821.109581_cleaned.dat
# Candidate        =  PSR_0332+5434
# Telescope        =  AR
# Epoch_topo       =  58243.211112379409
# Epoch_bary       =  N/A
# T_sample         =  0.002
# Data Folded      =  7143424
# Data Avg         =  0.0495158583241595
# Data StdDev      =  1.00005654124119 
# Profile Bins     =  512
# Profile Avg      =  690.863376744644 
# Profile StdDev   =  118.125263053242 
# Reduced chi-sqr  =  1.974
# Prob(Noise)      <  6.13e-35   (~12.3 sigma)
# P_topo (ms)      =  714.542886237136  +/- 0.000162
# P'_topo (s/s)    =  -0                +/- 8.79e-11
# P''_topo (s/s^2) =  0                 +/- 3.99e-14
# P_bary (ms)      =  N/A
# P'_bary (s/s)    =  N/A
# P''_bary (s/s^2) =  N/A
# P_orb (s)        =  N/A
# asin(i)/c (s)    =  N/A
# eccentricity     =  N/A
# w (rad)          =  N/A
# T_peri           =  N/A
######################################################
   0  1566.54
   1  1506.624
   2  1334.758
   3  1099.815
   4  997.1833
   5  871.7172
   6  784.8422
   7  720.0813
   8  820.9499
   9  821.6652
  10  808.0858
  11  773.0023
  12  775.7065
  13  798.6819
  14  825.9742
  15  789.3137
  16  769.6599
  17  749.3217
  18  682.6567
  19  599.9874
  20  589.6609
  21  732.7833
  22  760.9925
  23  777.3563
  24  728.2773
  25  692.4335
  26  593.9171
  27  572.56
  28  657.2741
  29  654.8364
  30  641.4177
  31  754.3348
  32  777.9297
  33  751.9422
  34  617.2623
  35  612.8488
  36  698.015
  37  841.3798
  38  809.0906
  39  761.0604
  40  713.1004
  41  664.4056
  42  719.4179
  43  621.653
  44  561.5587
  45  634.2819
  46  788.7952
  47  775.5259
  48  725.0352
  49  647.247
  50  680.6865
  51  612.5964
  52  603.153
  53  682.8807
  54  711.4121
  55  828.4813
  56  663.7929
  57  589.3762
  58  616.0492
  59  598.0002
  60  569.0491
  61  653.302
  62  674.9465
  63  720.8856
  64  643.1486
  65  612.9733
  66  631.6862
  67  798.641
  68  777.5559
  69  693.0386
  70  784.45
  71  882.6622
  72  851.9271
  73  797.0948
  74  761.0619
  75  546.5491
  76  571.4191
  77  686.8855
  78  776.2554
  79  824.8934
  80  618.3608
  81  602.7543
  82  626.0355
  83  796.3422
  84  773.1843
  85  693.0571
  86  671.4772
  87  750.2443
  88  729.7215
  89  638.9073
  90  496.3657
  91  575.3318
  92  486.578
  93  535.8929
  94  559.9069
  95  558.0356
  96  558.0297
  97  702.5246
  98  658.9443
  99  636.7678
 100  528.3476
 101  561.254
 102  671.0499
 103  600.1658
 104  759.4242
 105  782.0567
 106  631.9842
 107  588.2167
 108  656.7805
 109  602.825
 110  679.7389
 111  691.082
 112  694.375
 113  764.3284
 114  761.0695
 115  583.6635
 116  478.9615
 117  503.2971
 118  573.6522
 119  649.692
 120  756.9826
 121  690.869
 122  567.1296
 123  553.7825
 124  530.4288
 125  493.8627
 126  468.7522
 127  472.8813
 128  438.7185
 129  580.2368
 130  590.4233
 131  628.9154
 132  707.985
 133  635.8814
 134  697.0403
 135  749.9263
 136  771.9562
 137  729.9059
 138  755.3481
 139  669.8822
 140  491.0986
 141  666.5551
 142  662.7534
 143  544.5045
 144  646.9323
 145  640.3811
 146  614.898
 147  558.8061
 148  625.7972
 149  731.3907
 150  725.5075
 151  658.8308
 152  699.7459
 153  763.7682
 154  728.2371
 155  667.3992
 156  630.5646
 157  695.3946
 158  712.166
 159  708.9645
 160  573.6709
 161  589.7476
 162  656.6797
 163  776.0847
 164  648.8907
 165  670.1944
 166  644.9499
 167  652.3267
 168  595.1877
 169  710.0218
 170  728.6266
 171  662.8394
 172  617.9041
 173  494.2454
 174  571.5452
 175  772.21
 176  751.4757
 177  693.5156
 178  722.5292
 179  578.6732
 180  626.46
 181  508.7897
 182  513.3977
 183  672.6218
 184  704.4914
 185  729.8986
 186  746.5851
 187  840.7186
 188  655.7884
 189  509.9871
 190  649.2495
 191  717.4123
 192  661.108
 193  632.437
 194  679.9003
 195  593.8892
 196  785.2899
 197  605.4213
 198  509.9169
 199  560.6847
 200  583.186
 201  670.5342
 202  643.1853
 203  735.0436
 204  707.9363
 205  698.675
 206  647.8085
 207  615.5193
 208  659.3363
 209  690.7399
 210  630.9474
 211  559.312
 212  667.3361
 213  684.334
 214  733.5535
 215  731.9686
 216  587.6934
 217  615.5132
 218  777.2399
 219  760.9435
 220  600.8466
 221  585.5599
 222  645.6336
 223  613.2955
 224  602.0192
 225  666.5281
 226  601.5812
 227  557.3296
 228  600.0749
 229  558.3812
 230  661.0766
 231  690.5265
 232  621.4974
 233  551.2089
 234  493.5014
 235  633.7724
 236  605.7217
 237  605.8261
 238  659.5471
 239  756.1882
 240  823.5819
 241  786.8633
 242  621.8901
 243  498.2048
 244  619.8817
 245  711.5164
 246  672.9675
 247  620.9784
 248  611.2262
 249  664.9645
 250  625.0791
 251  661.5607
 252  614.174
 253  607.0499
 254  584.6014
 255  583.3209
 256  612.6611
 257  537.0675
 258  546.989
 259  625.7511
 260  687.9567
 261  703.6458
 262  644.6376
 263  678.064
 264  772.806
 265  632.8751
 266  670.4904
 267  644.4104
 268  784.1718
 269  820.4048
 270  674.6661
 271  695.9619
 272  645.7141
 273  623.0106
 274  483.4821
 275  533.0135
 276  583.1577
 277  552.9828
 278  633.5048
 279  679.7023
 280  582.7348
 281  502.1033
 282  603.9196
 283  623.5283
 284  616.405
 285  639.9565
 286  692.5098
 287  761.2226
 288  725.1203
 289  616.8635
 290  628.3396
 291  790.4062
 292  726.6157
 293  706.0515
 294  512.4116
 295  652.4814
 296  608.9336
 297  681.6136
 298  610.0009
 299  568.2617
 300  587.8388
 301  580.657
 302  685.5875
 303  684.4893
 304  620.9249
 305  617.5997
 306  581.8033
 307  535.574
 308  550.6724
 309  556.545
 310  619.8926
 311  663.906
 312  686.9443
 313  574.934
 314  690.9846
 315  636.0189
 316  706.1168
 317  620.0971
 318  695.6322
 319  855.6203
 320  758.1014
 321  711.0662
 322  602.9403
 323  623.3484
 324  673.971
 325  685.442
 326  757.6088
 327  664.0248
 328  700.4498
 329  686.8797
 330  629.1837
 331  638.9432
 332  615.7581
 333  691.7448
 334  748.9399
 335  753.8482
 336  772.7185
 337  786.3065
 338  794.3403
 339  842.3398
 340  684.9745
 341  610.804
 342  635.7129
 343  745.2263
 344  780.5475
 345  867.2699
 346  907.3477
 347  715.3862
 348  564.426
 349  670.7094
 350  744.3083
 351  762.0115
 352  792.316
 353  809.6674
 354  723.5241
 355  617.99
 356  693.6031
 357  640.3871
 358  650.6483
 359  675.5069
 360  726.1503
 361  871.4664
 362  877.7206
 363  833.0182
 364  837.7148
 365  709.177
 366  678.9579
 367  789.1122
 368  810.1653
 369  831.7502
 370  856.7598
 371  805.3423
 372  709.3884
 373  665.6096
 374  659.015
 375  626.5938
 376  693.7382
 377  715.5213
 378  659.752
 379  578.8083
 380  647.5837
 381  631.6763
 382  640.4012
 383  518.3817
 384  613.6966
 385  693.0992
 386  702.9001
 387  601.1818
 388  652.0284
 389  740.5206
 390  705.9969
 391  556.0775
 392  638.4248
 393  677.9009
 394  713.5048
 395  862.8444
 396  738.0611
 397  708.6817
 398  614.9592
 399  657.3557
 400  787.384
 401  819.2656
 402  634.4889
 403  603.7723
 404  728.0149
 405  711.469
 406  610.9911
 407  571.7667
 408  543.6207
 409  639.538
 410  616.2621
 411  636.3592
 412  780.7704
 413  766.6812
 414  673.524
 415  586.8333
 416  642.4628
 417  790.7829
 418  652.1844
 419  725.0449
 420  707.6772
 421  573.4291
 422  476.5111
 423  557.4619
 424  719.3292
 425  644.101
 426  705.0342
 427  733.634
 428  766.8538
 429  809.3
 430  719.8555
 431  724.1214
 432  758.3213
 433  772.7282
 434  806.1699
 435  856.0388
 436  665.4726
 437  626.1808
 438  670.1989
 439  625.0138
 440  659.3113
 441  682.2197
 442  753.8022
 443  780.0918
 444  667.7243
 445  639.0636
 446  616.4091
 447  775.0286
 448  878.9901
 449  814.7605
 450  778.5779
 451  739.5116
 452  709.5148
 453  791.7938
 454  739.7819
 455  714.2271
 456  795.6074
 457  853.5843
 458  675.4997
 459  591.6767
 460  710.7172
 461  735.8317
 462  714.9903
 463  642.8655
 464  727.7111
 465  640.6165
 466  658.975
 467  706.259
 468  758.5435
 469  714.8204
 470  706.6198
 471  816.2751
 472  835.8
 473  675.4368
 474  633.8199
 475  724.3312
 476  799.4431
 477  820.3132
 478  731.2024
 479  754.7094
 480  673.7493
 481  702.7853
 482  756.6686
 483  810.9428
 484  800.665
 485  708.8699
 486  637.4536
 487  757.3692
 488  763.6339
 489  688.2186
 490  703.3171
 491  786.7053
 492  750.4841
 493  810.4629
 494  732.3016
 495  658.4316
 496  739.1956
 497  760.2927
 498  721.5693
 499  690.0294
 500  870.8901
 501  954.5118
 502  891.1519
 503  812.5286
 504  891.8774
 505  774.7859
 506  779.7699
 507  929.9523
 508  1010.08
 509  1132.719
 510  1247.43
 511  1471.302
