# Input file       =  1209906091.119043_cleaned.dat
# Candidate        =  PSR_0332+5434
# Telescope        =  AR
# Epoch_topo       =  58247.542941192631
# Epoch_bary       =  N/A
# T_sample         =  0.002
# Data Folded      =  7340032
# Data Avg         =  0.540255079189332
# Data StdDev      =  5.12179594316114 
# Profile Bins     =  512
# Profile Avg      =  7744.71081880551 
# Profile StdDev   =  613.248179976886 
# Reduced chi-sqr  =  1.560
# Prob(Noise)      <  7.33e-15   (~7.7 sigma)
# P_topo (ms)      =  714.53917663511   +/- 0.00101
# P'_topo (s/s)    =  -0                +/- 5.31e-10
# P''_topo (s/s^2) =  0                 +/- 2.34e-13
# P_bary (ms)      =  N/A
# P'_bary (s/s)    =  N/A
# P''_bary (s/s^2) =  N/A
# P_orb (s)        =  N/A
# asin(i)/c (s)    =  N/A
# eccentricity     =  N/A
# w (rad)          =  N/A
# T_peri           =  N/A
######################################################
   0  7653.404
   1  7140.422
   2  7251.269
   3  7253.312
   4  7259.754
   5  7316.495
   6  7166.659
   7  7032.986
   8  6832.955
   9  7205.427
  10  7117.119
  11  7034.577
  12  7323.4
  13  7053.589
  14  6747.568
  15  6998.705
  16  7293.438
  17  7290.493
  18  7164.45
  19  7357.896
  20  7159.653
  21  6788.704
  22  6928.701
  23  6917.239
  24  7192.709
  25  7312.383
  26  7116.276
  27  7291.202
  28  7196.784
  29  7155.198
  30  7160.37
  31  7211.443
  32  6856.192
  33  6422.057
  34  6718.846
  35  7171.687
  36  6971.395
  37  6956.793
  38  6882.204
  39  7040.569
  40  7304.414
  41  7211.798
  42  7205.77
  43  7658.965
  44  8111.756
  45  8807.458
  46  9519.284
  47  9401.638
  48  9007.741
  49  8304.973
  50  7510.243
  51  7243.223
  52  7366.483
  53  7331.851
  54  7615.168
  55  7741.244
  56  7393.253
  57  6967.155
  58  7094.362
  59  7299.258
  60  7136.942
  61  7316.947
  62  7390.607
  63  7187.47
  64  6917.94
  65  7147.046
  66  7325.186
  67  7193.021
  68  6739.203
  69  7021.785
  70  7227.502
  71  7093.515
  72  7169.865
  73  7457.445
  74  7668.247
  75  7641.204
  76  7531.854
  77  7250.85
  78  7394.644
  79  7149.848
  80  6776.694
  81  7060.076
  82  7014.007
  83  6871.337
  84  7143.801
  85  7196.476
  86  7164.828
  87  7247.26
  88  7480.358
  89  7339.844
  90  7353.2
  91  6895.288
  92  6929.533
  93  7476.4
  94  7658.074
  95  7737.458
  96  7673.787
  97  7866.345
  98  7682.834
  99  7432.478
 100  7619.237
 101  7230.287
 102  7394.529
 103  7493.393
 104  7505.106
 105  7584.32
 106  7759.179
 107  7849.148
 108  7212.874
 109  7386.96
 110  7608.589
 111  7797.564
 112  7622.401
 113  7297.745
 114  7391.477
 115  7188.087
 116  7269.753
 117  7350.715
 118  7215.269
 119  7144.244
 120  7467.953
 121  7420.568
 122  7771.199
 123  7597.35
 124  7341.336
 125  7111.208
 126  7165.401
 127  7744.624
 128  7803.952
 129  7741.256
 130  7493.96
 131  7107.986
 132  7121.269
 133  7167.935
 134  7066.047
 135  7483.966
 136  7475.093
 137  7391.587
 138  7148.954
 139  7159.121
 140  7097.831
 141  7397.586
 142  7598.93
 143  7471.98
 144  7413.899
 145  7054.02
 146  7003.494
 147  7032.024
 148  6775.204
 149  7049.875
 150  6815.594
 151  7409.173
 152  7174.382
 153  6805.917
 154  7122.285
 155  7166.077
 156  7484.528
 157  7614.435
 158  7438.386
 159  7588.184
 160  7566.674
 161  7290.667
 162  7597.033
 163  7750.288
 164  7768.217
 165  7707.902
 166  7698.405
 167  7771.614
 168  7818.327
 169  7993.948
 170  7550.021
 171  7574.912
 172  7916.513
 173  8163.88
 174  8295.884
 175  8132.697
 176  8154.964
 177  8373.42
 178  7962.144
 179  7713.948
 180  7690.011
 181  7767.393
 182  7584.022
 183  7694.79
 184  7734.636
 185  7391.799
 186  7591.975
 187  7338.783
 188  7358.208
 189  7383.632
 190  7415.803
 191  7443.862
 192  7515.301
 193  7680.367
 194  7296.046
 195  7583.494
 196  7564.608
 197  7570.391
 198  7313.868
 199  7760.582
 200  7817.249
 201  7870.463
 202  7735.884
 203  7938.792
 204  7765.479
 205  7273.117
 206  7483.612
 207  7781.316
 208  7776.235
 209  7608.113
 210  7606.287
 211  7643.183
 212  7961.207
 213  8006.404
 214  7671.021
 215  7799.998
 216  7827.263
 217  8030.893
 218  7902.687
 219  8158.219
 220  8071.648
 221  7544.945
 222  7513.232
 223  7620.384
 224  8229.564
 225  8381.41
 226  8035.946
 227  7930.256
 228  7965.174
 229  7986.761
 230  7933.682
 231  8012.841
 232  7822.006
 233  8018.129
 234  7807.129
 235  7966.143
 236  7828.233
 237  8021.881
 238  8282.226
 239  7884.871
 240  7874.706
 241  7747.741
 242  7792.989
 243  7780.394
 244  8077.152
 245  8194.691
 246  7972.913
 247  7799.016
 248  7931.932
 249  8086.283
 250  7759.811
 251  8165.25
 252  8260.875
 253  8158.458
 254  8454.372
 255  8225.243
 256  8293.726
 257  8593.657
 258  8675.815
 259  8670.854
 260  8512.095
 261  8624.338
 262  8765.112
 263  8645.367
 264  8648.738
 265  8170.041
 266  7877.546
 267  8041.408
 268  8101.711
 269  8257.052
 270  8080.307
 271  7929.553
 272  7803.938
 273  7911.655
 274  8058.407
 275  7788.397
 276  7663.412
 277  8027.625
 278  8075.445
 279  8052.63
 280  7946.451
 281  7718.204
 282  7858.033
 283  8295.357
 284  8085.879
 285  8353.517
 286  8009.779
 287  7984.954
 288  8056.989
 289  7732.679
 290  7906.941
 291  8059.257
 292  7886.051
 293  7927.205
 294  7943.951
 295  7683.958
 296  7490.053
 297  7668.057
 298  7875.111
 299  7790.29
 300  8048.659
 301  8247.514
 302  8008.73
 303  7970.875
 304  8179.741
 305  8446.971
 306  8396.672
 307  8278.232
 308  8153.673
 309  8185.155
 310  8190.936
 311  8371.74
 312  8759.027
 313  8523.065
 314  8138.795
 315  7833.354
 316  8318.151
 317  8605.934
 318  8475.571
 319  8419.084
 320  8752.766
 321  8726.233
 322  8946.33
 323  8786.655
 324  8068.997
 325  7824.938
 326  8151.633
 327  8729.887
 328  8536.34
 329  8443.841
 330  8427.861
 331  8504.163
 332  8227.577
 333  8575.924
 334  8580.742
 335  8410.075
 336  8312.25
 337  8348.426
 338  8390.572
 339  8650.008
 340  8731.873
 341  8987.297
 342  8902.946
 343  8721.426
 344  9168.291
 345  9463.47
 346  9288.023
 347  8776.66
 348  8691.349
 349  8810.187
 350  8585.075
 351  8999.695
 352  9326.016
 353  8787.159
 354  8572.529
 355  8508.724
 356  8646.356
 357  8823.842
 358  8758.166
 359  8753.475
 360  8753.739
 361  8935.804
 362  8610.108
 363  8663.354
 364  8554.854
 365  8658.499
 366  8720.319
 367  8701.805
 368  8925.319
 369  8918.662
 370  8845.147
 371  8585.846
 372  8153.224
 373  8514.043
 374  8706.458
 375  8640.378
 376  8440.247
 377  8579.088
 378  8588.411
 379  8689.863
 380  8098.347
 381  8113.782
 382  8258.152
 383  8417.613
 384  8520.87
 385  8593.186
 386  8504.565
 387  8364.476
 388  8317.114
 389  8488.521
 390  8170.168
 391  7827.31
 392  7797.921
 393  8120.842
 394  8225.458
 395  8254.255
 396  8274.929
 397  8102.772
 398  8153.872
 399  7924.707
 400  7975.998
 401  7933.768
 402  7911.063
 403  8081.188
 404  7813.591
 405  7622.903
 406  7935.541
 407  7736.353
 408  7940.331
 409  7643.61
 410  7601.689
 411  7992.486
 412  7681.888
 413  7522.529
 414  7526.761
 415  7546.908
 416  7592.676
 417  7625.687
 418  7902.672
 419  7698.289
 420  7769.27
 421  7801.393
 422  7717.256
 423  7667.377
 424  7774.844
 425  8013.904
 426  8078.661
 427  7884.035
 428  7728.206
 429  7518.19
 430  7751.434
 431  7859.601
 432  7372.988
 433  7381.481
 434  7360.147
 435  7627.878
 436  7509.205
 437  7556.586
 438  7342.872
 439  7419.706
 440  7624.647
 441  7298.822
 442  7532.192
 443  7672.374
 444  7797.102
 445  7560.841
 446  7135.828
 447  6876.561
 448  6651.567
 449  7276.508
 450  7341.377
 451  7291.65
 452  7053.898
 453  7036.95
 454  7294.781
 455  7225.09
 456  7276.446
 457  7131.566
 458  7194.418
 459  7235.352
 460  7364.409
 461  7038.646
 462  6946.311
 463  7414.102
 464  7605.185
 465  7701.494
 466  7603.956
 467  7608.37
 468  7365.46
 469  7231.34
 470  7486.813
 471  7470.827
 472  7060.134
 473  7002.746
 474  7189.307
 475  6731.541
 476  6758.493
 477  7147.225
 478  7176.688
 479  7087.526
 480  7030.379
 481  7048.445
 482  7058.271
 483  7247.769
 484  7459.25
 485  7482.102
 486  7488.224
 487  7285.651
 488  7137.088
 489  7220.763
 490  7061.694
 491  7282.49
 492  7626.092
 493  7696.543
 494  7715.624
 495  7319.18
 496  7070.6
 497  7212.333
 498  7464.21
 499  7587.9
 500  7421.165
 501  7496.73
 502  7571.572
 503  7611.083
 504  7622.18
 505  7572.895
 506  7931.735
 507  7908.111
 508  7777.169
 509  7699.166
 510  7464.347
 511  7802.712
