# Input file       =  1209561351.137129_cleaned.dat
# Candidate        =  PSR_0332+5434
# Telescope        =  AR
# Epoch_topo       =  58243.552895105662
# Epoch_bary       =  N/A
# T_sample         =  0.002
# Data Folded      =  7340032
# Data Avg         =  0.356222966227506
# Data StdDev      =  5.79352516723894 
# Profile Bins     =  1024
# Profile Avg      =  2553.1215732149  
# Profile StdDev   =  490.50325782106  
# Reduced chi-sqr  =  0.692
# Prob(Noise)      <  1   (~0.0 sigma)
# P_topo (ms)      =  714.542914918828  +/- 0.000846
# P'_topo (s/s)    =  -0                +/- 4.46e-10
# P''_topo (s/s^2) =  0                 +/- 1.97e-13
# P_bary (ms)      =  N/A
# P'_bary (s/s)    =  N/A
# P''_bary (s/s^2) =  N/A
# P_orb (s)        =  N/A
# asin(i)/c (s)    =  N/A
# eccentricity     =  N/A
# w (rad)          =  N/A
# T_peri           =  N/A
######################################################
   0  2520.82
   1  2576.027
   2  2575.703
   3  2701.672
   4  2758.584
   5  2761.086
   6  2700.542
   7  2633.899
   8  2559.984
   9  2500.417
  10  2565.288
  11  2653.651
  12  2609.189
  13  2494.876
  14  2546.281
  15  2608.497
  16  2637.023
  17  2512.548
  18  2507.801
  19  2378.368
  20  2282.4
  21  2172.053
  22  2298.212
  23  2365.773
  24  2412.707
  25  2517.044
  26  2465.648
  27  2382.217
  28  2275.101
  29  2342.893
  30  2380.458
  31  2481.04
  32  2536.876
  33  2438.981
  34  2388.958
  35  2305.98
  36  2363.131
  37  2360.485
  38  2401.166
  39  2417.049
  40  2373.848
  41  2389.26
  42  2509.278
  43  2641.368
  44  2622.263
  45  2539.618
  46  2611.173
  47  2625.758
  48  2533.76
  49  2467.854
  50  2424.37
  51  2379.606
  52  2359.76
  53  2510.314
  54  2489.456
  55  2545.76
  56  2405.378
  57  2492.896
  58  2442.196
  59  2519.108
  60  2558.035
  61  2669.671
  62  2703.926
  63  2716.61
  64  2656.172
  65  2680
  66  2499.618
  67  2339.917
  68  2390.199
  69  2506.789
  70  2541.765
  71  2381.659
  72  2415.281
  73  2467.471
  74  2548.301
  75  2669.069
  76  2829.691
  77  2871.815
  78  2740.235
  79  2602.79
  80  2453.244
  81  2437.32
  82  2528.294
  83  2624.156
  84  2698.412
  85  2761.788
  86  2791.248
  87  2723.852
  88  2567.484
  89  2546.449
  90  2600.464
  91  2632.438
  92  2662.109
  93  2628.579
  94  2700.256
  95  2630.284
  96  2537.588
  97  2419.617
  98  2343.466
  99  2390.815
 100  2524.801
 101  2612.731
 102  2453.621
 103  2366.974
 104  2370.722
 105  2494.377
 106  2464.907
 107  2475.247
 108  2405.636
 109  2480.871
 110  2582.395
 111  2632.792
 112  2582.865
 113  2483.498
 114  2335.265
 115  2172.382
 116  2146.158
 117  2165.519
 118  2194.942
 119  2301.515
 120  2454.35
 121  2445.307
 122  2333.989
 123  2382.813
 124  2463.99
 125  2552.022
 126  2539.177
 127  2462.793
 128  2423.691
 129  2335.06
 130  2452.812
 131  2560.664
 132  2680.44
 133  2622.684
 134  2519.221
 135  2428.743
 136  2289.512
 137  2386.936
 138  2476.799
 139  2509.765
 140  2488.035
 141  2484.578
 142  2554.493
 143  2636.861
 144  2704.224
 145  2640.7
 146  2585.846
 147  2554.749
 148  2555.791
 149  2472.85
 150  2478.865
 151  2546.087
 152  2492.659
 153  2535.314
 154  2466.067
 155  2542.669
 156  2640.228
 157  2668.9
 158  2594.033
 159  2607.846
 160  2508.189
 161  2573.637
 162  2562.067
 163  2651.195
 164  2688.208
 165  2669.185
 166  2635.63
 167  2620.514
 168  2567.469
 169  2488.233
 170  2476.254
 171  2525.758
 172  2579.145
 173  2562.795
 174  2588.959
 175  2740.984
 176  2840.329
 177  2914.524
 178  2717.204
 179  2711.403
 180  2725.27
 181  2791.757
 182  2710.729
 183  2646.846
 184  2749.428
 185  2724.821
 186  2814.68
 187  2673.772
 188  2677.404
 189  2693.362
 190  2770.208
 191  2801.2
 192  2875.663
 193  2972.142
 194  2997.148
 195  2835.129
 196  2746.204
 197  2757.71
 198  2832.254
 199  2992.468
 200  3029.657
 201  3139.823
 202  3063.775
 203  3025.166
 204  2960.85
 205  2757.991
 206  2743.125
 207  2806.466
 208  2854.367
 209  2713.434
 210  2577.34
 211  2546.871
 212  2689.633
 213  2802.214
 214  2835.872
 215  2745.091
 216  2534.735
 217  2447.019
 218  2675.443
 219  2798.004
 220  2686.532
 221  2662.717
 222  2885.226
 223  2963.671
 224  2811.303
 225  2664.364
 226  2597.258
 227  2556.134
 228  2605.119
 229  2686.652
 230  2650.741
 231  2494.794
 232  2351.796
 233  2356.659
 234  2471.966
 235  2519.668
 236  2487.138
 237  2450.506
 238  2513.559
 239  2579.685
 240  2671.423
 241  2555.429
 242  2552.15
 243  2523.761
 244  2629.014
 245  2621.444
 246  2576.264
 247  2665.972
 248  2694.049
 249  2593.289
 250  2546.734
 251  2511.109
 252  2382.458
 253  2409.031
 254  2602.169
 255  2641.005
 256  2641.021
 257  2698.73
 258  2843.546
 259  2705.26
 260  2670.722
 261  2592.157
 262  2678.654
 263  2657.07
 264  2657.416
 265  2528.716
 266  2558.67
 267  2583.959
 268  2513.046
 269  2454.421
 270  2403.266
 271  2462.619
 272  2539.832
 273  2444.256
 274  2422.19
 275  2384.24
 276  2454.312
 277  2598.083
 278  2683.384
 279  2666.649
 280  2571.228
 281  2420.911
 282  2469.255
 283  2494.485
 284  2539.344
 285  2488.938
 286  2391.578
 287  2423.027
 288  2410.597
 289  2568.033
 290  2507.317
 291  2450.48
 292  2393.508
 293  2428.082
 294  2551.438
 295  2437.547
 296  2412.384
 297  2299.473
 298  2333.953
 299  2482.765
 300  2577.31
 301  2503.284
 302  2471.35
 303  2508.569
 304  2652.975
 305  2476.665
 306  2299.198
 307  2350.586
 308  2390.963
 309  2380.6
 310  2279.402
 311  2328.603
 312  2366.551
 313  2433.429
 314  2496.442
 315  2489.312
 316  2503.568
 317  2478.035
 318  2498.962
 319  2537.26
 320  2661.996
 321  2731.914
 322  2605.104
 323  2611.617
 324  2550.197
 325  2512.474
 326  2486.173
 327  2528.805
 328  2654.495
 329  2589.476
 330  2528.736
 331  2513.036
 332  2497.753
 333  2456.159
 334  2375.264
 335  2392.01
 336  2411.475
 337  2409.634
 338  2328.718
 339  2216.029
 340  2270.34
 341  2373.982
 342  2620.122
 343  2701.219
 344  2617.068
 345  2561.19
 346  2591.572
 347  2659.251
 348  2495.972
 349  2401.024
 350  2472.524
 351  2579.445
 352  2710.892
 353  2638.176
 354  2613.129
 355  2536.623
 356  2477.896
 357  2416.65
 358  2311.678
 359  2215.115
 360  2230.545
 361  2492.72
 362  2625.302
 363  2709.523
 364  2736.315
 365  2699.302
 366  2543.361
 367  2474.26
 368  2492.174
 369  2516.65
 370  2624.688
 371  2681.363
 372  2704.965
 373  2647.937
 374  2691.071
 375  2719.66
 376  2544.759
 377  2416.996
 378  2421.371
 379  2447.642
 380  2424.237
 381  2460.136
 382  2499.05
 383  2666.121
 384  2581.053
 385  2663.464
 386  2556.787
 387  2634.276
 388  2735.258
 389  2832.279
 390  2771.181
 391  2698.479
 392  2683.078
 393  2626.186
 394  2546.791
 395  2594.499
 396  2684.324
 397  2756.073
 398  2804.805
 399  2750.48
 400  2762.651
 401  2742.545
 402  2924.296
 403  2958.081
 404  2986.975
 405  2875.869
 406  2746.571
 407  2762.206
 408  2768.625
 409  2736.017
 410  2721.702
 411  2771.853
 412  2758.425
 413  2725.67
 414  2656.532
 415  2706.522
 416  2635.064
 417  2640.323
 418  2679.197
 419  2772.027
 420  2849.494
 421  2835.546
 422  2802.181
 423  2705.916
 424  2746.738
 425  2796.024
 426  2655.765
 427  2482.681
 428  2461.229
 429  2540.527
 430  2711.072
 431  2692.765
 432  2733.684
 433  2711.469
 434  2753.605
 435  2721.072
 436  2640.086
 437  2666.429
 438  2643.854
 439  2608.059
 440  2528.501
 441  2552.823
 442  2567.299
 443  2595.241
 444  2617.606
 445  2676.399
 446  2705.213
 447  2724.606
 448  2788.293
 449  2829.756
 450  2795.326
 451  2644.311
 452  2515.439
 453  2519.975
 454  2461.635
 455  2474.041
 456  2557.615
 457  2517.778
 458  2533.708
 459  2550.085
 460  2621.7
 461  2584.199
 462  2598.391
 463  2799.789
 464  2858.932
 465  2934.748
 466  2761.323
 467  2748.989
 468  2701.641
 469  2613.897
 470  2681.328
 471  2686.112
 472  2724.825
 473  2720.694
 474  2677.868
 475  2749.781
 476  2727.936
 477  2657.556
 478  2547.313
 479  2433.516
 480  2541.725
 481  2609.112
 482  2609.073
 483  2571.506
 484  2517.789
 485  2460.515
 486  2504.28
 487  2542.623
 488  2620.633
 489  2680.259
 490  2750.212
 491  2789.854
 492  2685.225
 493  2562.734
 494  2766.543
 495  2879.645
 496  2873.601
 497  2746.98
 498  2729.061
 499  2708.773
 500  2726.762
 501  2667.217
 502  2616.014
 503  2571.676
 504  2680.661
 505  2766.436
 506  2720.593
 507  2519.757
 508  2579.33
 509  2630.901
 510  2708.161
 511  2594.184
 512  2588.657
 513  2558.198
 514  2508.299
 515  2517.423
 516  2557.603
 517  2621.926
 518  2649.357
 519  2715.093
 520  2718.639
 521  2676.695
 522  2667.137
 523  2560.655
 524  2540.447
 525  2641.86
 526  2688.241
 527  2606.699
 528  2515.946
 529  2547.678
 530  2611.754
 531  2812.722
 532  2765.415
 533  2699.886
 534  2604.854
 535  2623.789
 536  2646.372
 537  2646.638
 538  2676.104
 539  2687.54
 540  2672.662
 541  2760.177
 542  2794.862
 543  2778.73
 544  2852.946
 545  2849.134
 546  2810.166
 547  2751.98
 548  2739.012
 549  2685.062
 550  2654.759
 551  2661.672
 552  2622.916
 553  2653.849
 554  2723.948
 555  2859.15
 556  2912.481
 557  2820.257
 558  2877.406
 559  2940.463
 560  2945.5
 561  2905.763
 562  2949.981
 563  2964.055
 564  2918.652
 565  2854.519
 566  2727.47
 567  2704.085
 568  2691.256
 569  2621.94
 570  2579.276
 571  2654.862
 572  2690.57
 573  2687.441
 574  2694.381
 575  2685.497
 576  2681.313
 577  2600.976
 578  2613.895
 579  2466.193
 580  2444.277
 581  2597.781
 582  2802.704
 583  2944.943
 584  2895.416
 585  2875.91
 586  2763.156
 587  2677.684
 588  2646.166
 589  2742.779
 590  2777.184
 591  2900.364
 592  2883.325
 593  2960.133
 594  2833.847
 595  2916.229
 596  2997.951
 597  3239.792
 598  3388.15
 599  3470.523
 600  3531.418
 601  3635.226
 602  3556.812
 603  3511.04
 604  3460.711
 605  3391.612
 606  3261.147
 607  3249.015
 608  3153.892
 609  3076.142
 610  2953.124
 611  2915.99
 612  2701.682
 613  2562.817
 614  2372.795
 615  2429.478
 616  2501.493
 617  2637.159
 618  2739.382
 619  2742.842
 620  2657.812
 621  2493.925
 622  2618.842
 623  2739.561
 624  2734.542
 625  2612.134
 626  2602.848
 627  2635.372
 628  2817.98
 629  2868.767
 630  2880.295
 631  2788.317
 632  2737.574
 633  2827.654
 634  2929.3
 635  2862.784
 636  2729.012
 637  2690.661
 638  2708.851
 639  2600.92
 640  2604.865
 641  2677.006
 642  2649.038
 643  2577.906
 644  2638.895
 645  2649.595
 646  2649.056
 647  2632.054
 648  2627.578
 649  2632.383
 650  2669.032
 651  2624.434
 652  2559.537
 653  2491.556
 654  2441.155
 655  2502.578
 656  2434.903
 657  2598.45
 658  2593.447
 659  2636.281
 660  2585.942
 661  2528.057
 662  2468.872
 663  2581.872
 664  2404.579
 665  2346.25
 666  2355.734
 667  2290.189
 668  2263.844
 669  2189.301
 670  2215.609
 671  2249.539
 672  2236.106
 673  2337.086
 674  2339.033
 675  2226.648
 676  2255.227
 677  2226.391
 678  2238.598
 679  2230.969
 680  2158.912
 681  2098.23
 682  1988.421
 683  1968.171
 684  1961.318
 685  1977.35
 686  1999.687
 687  2108.636
 688  2036.918
 689  2017.745
 690  2036.575
 691  2068.957
 692  2083.441
 693  2153.793
 694  2297.378
 695  2267.849
 696  2243.776
 697  2115.984
 698  2054.276
 699  2069.562
 700  2062.245
 701  2160.488
 702  2139.683
 703  2077.743
 704  1928.526
 705  1997.004
 706  2224.254
 707  2190.51
 708  2231.476
 709  2190.485
 710  2271.474
 711  2144.897
 712  2110.787
 713  2172.43
 714  2265.878
 715  2196.069
 716  2088.73
 717  1938.668
 718  1985.062
 719  2096.053
 720  2208.887
 721  2253.917
 722  2076.564
 723  1980.886
 724  1992.645
 725  1933.918
 726  1990.4
 727  1974.398
 728  2013.608
 729  1987.246
 730  1928.062
 731  2030.578
 732  2085.012
 733  2147.303
 734  2047.629
 735  1970.607
 736  1898.531
 737  1970.951
 738  2104.668
 739  2037.349
 740  2041.528
 741  2072.867
 742  2227.962
 743  2215.038
 744  2248.933
 745  2298.131
 746  2342.652
 747  2366.426
 748  2446.125
 749  2502.788
 750  2519.235
 751  2414.49
 752  2394.295
 753  2345.825
 754  2272.609
 755  2256.375
 756  2216.987
 757  2190.025
 758  2231.491
 759  2377.416
 760  2478.941
 761  2383.671
 762  2315.151
 763  2308.781
 764  2341.785
 765  2252.078
 766  2178.323
 767  2148.383
 768  2246.341
 769  2402.598
 770  2477.947
 771  2487.141
 772  2471.446
 773  2490.259
 774  2537.953
 775  2543.886
 776  2589.534
 777  2677.357
 778  2718.056
 779  2535.053
 780  2465.057
 781  2520.647
 782  2539.371
 783  2524.82
 784  2438.936
 785  2670.469
 786  2666.34
 787  2760.314
 788  2694.177
 789  2622.177
 790  2476.547
 791  2478.127
 792  2539.59
 793  2614.336
 794  2630.531
 795  2539.252
 796  2548.649
 797  2501.445
 798  2615.639
 799  2543.945
 800  2550.763
 801  2552.729
 802  2614.296
 803  2715.7
 804  2759.195
 805  2748.632
 806  2776.438
 807  2827.423
 808  2880.281
 809  2872.614
 810  2834.808
 811  2881.45
 812  2886.025
 813  2929.129
 814  2933.243
 815  2867.986
 816  2955.747
 817  3075.483
 818  3052.169
 819  3070.795
 820  3030.122
 821  2936.953
 822  2709.53
 823  2611.576
 824  2600.745
 825  2593.236
 826  2501.524
 827  2560.472
 828  2571.468
 829  2667.511
 830  2665.903
 831  2656.978
 832  2463.252
 833  2449.686
 834  2495.414
 835  2542.883
 836  2431.532
 837  2410.36
 838  2450.03
 839  2507.005
 840  2407.752
 841  2319.641
 842  2305.388
 843  2289.758
 844  2318.14
 845  2389.511
 846  2451.743
 847  2436.114
 848  2329.169
 849  2216.05
 850  2052.881
 851  2163.242
 852  2318.282
 853  2320.054
 854  2160.081
 855  2156.047
 856  2155.76
 857  2302.205
 858  2354.702
 859  2416.672
 860  2308.077
 861  2286.137
 862  2384.15
 863  2415.968
 864  2581.027
 865  2634.652
 866  2716.471
 867  2677.615
 868  2534.834
 869  2495.419
 870  2529.046
 871  2487.238
 872  2518.217
 873  2453.129
 874  2492.91
 875  2402.599
 876  2526.098
 877  2539.263
 878  2588.707
 879  2615.415
 880  2756.18
 881  2768.004
 882  2676.196
 883  2620.968
 884  2641.554
 885  2640.856
 886  2702.796
 887  2666.64
 888  2780.415
 889  2750.102
 890  2694.574
 891  2570.324
 892  2464.8
 893  2558.913
 894  2655.6
 895  2746.577
 896  2656.371
 897  2617.581
 898  2513.523
 899  2590.735
 900  2614.321
 901  2557.917
 902  2448.04
 903  2600.722
 904  2626.596
 905  2633.46
 906  2592.305
 907  2610.632
 908  2561.088
 909  2356.92
 910  2378.818
 911  2479.198
 912  2640.396
 913  2564.109
 914  2531.778
 915  2579.258
 916  2657.752
 917  2583.203
 918  2436.767
 919  2439.77
 920  2456.146
 921  2504.513
 922  2445.121
 923  2332.114
 924  2147.539
 925  2299.491
 926  2516.48
 927  2715.827
 928  2660.87
 929  2660.277
 930  2580.34
 931  2501.645
 932  2384.268
 933  2499.631
 934  2680.158
 935  2591.625
 936  2549.08
 937  2528.893
 938  2580.72
 939  2533.432
 940  2520.063
 941  2559.775
 942  2547.02
 943  2484.562
 944  2410.376
 945  2294.117
 946  2223.271
 947  2279.577
 948  2415.036
 949  2547.251
 950  2612.666
 951  2601.816
 952  2570.184
 953  2511.259
 954  2433.489
 955  2429.385
 956  2439.886
 957  2441.739
 958  2409.485
 959  2361.702
 960  2308.986
 961  2274.466
 962  2378.833
 963  2561.593
 964  2687.627
 965  2615.055
 966  2508.085
 967  2376.732
 968  2287.973
 969  2436.396
 970  2561.468
 971  2588.424
 972  2521.975
 973  2555.035
 974  2605.868
 975  2637.164
 976  2546.247
 977  2580.601
 978  2534.325
 979  2471.785
 980  2548.177
 981  2515.401
 982  2593.031
 983  2528.333
 984  2495.639
 985  2449.924
 986  2408.624
 987  2404.891
 988  2317.109
 989  2440.646
 990  2601.904
 991  2582.47
 992  2445.251
 993  2400.292
 994  2294.449
 995  2198.91
 996  2248.271
 997  2410.453
 998  2413.79
 999  2375.681
1000  2343.789
1001  2331.59
1002  2220.799
1003  2311.087
1004  2366.919
1005  2370.335
1006  2242.516
1007  2337.843
1008  2451.006
1009  2470.825
1010  2481.264
1011  2559.457
1012  2582.896
1013  2549.888
1014  2665.873
1015  2656.94
1016  2590.369
1017  2603.912
1018  2606.893
1019  2489.697
1020  2441.027
1021  2298.572
1022  2331.658
1023  2291.3
