# Input file       =  1209029504.11775_cleaned.dat
# Candidate        =  PSR_0332+5434
# Telescope        =  AR
# Epoch_topo       =  58237.397258307290
# Epoch_bary       =  N/A
# T_sample         =  0.002
# Data Folded      =  7340032
# Data Avg         =  0.260913282419747
# Data StdDev      =  5.9393178441379  
# Profile Bins     =  1024
# Profile Avg      =  1869.90792514046 
# Profile StdDev   =  502.84665513463  
# Reduced chi-sqr  =  0.678
# Prob(Noise)      <  1   (~0.0 sigma)
# P_topo (ms)      =  714.54816295678   +/- 0.00071
# P'_topo (s/s)    =  -0                +/- 3.75e-10
# P''_topo (s/s^2) =  0                 +/- 1.65e-13
# P_bary (ms)      =  N/A
# P'_bary (s/s)    =  N/A
# P''_bary (s/s^2) =  N/A
# P_orb (s)        =  N/A
# asin(i)/c (s)    =  N/A
# eccentricity     =  N/A
# w (rad)          =  N/A
# T_peri           =  N/A
######################################################
   0  2415.93
   1  2398.422
   2  2340.873
   3  2288.597
   4  2208.643
   5  2171.879
   6  2302.409
   7  2377.837
   8  2413.146
   9  2360.605
  10  2239.697
  11  2118.988
  12  2024.881
  13  2005.873
  14  2101.892
  15  2104.599
  16  2135.487
  17  2180.834
  18  2144.333
  19  2207.74
  20  2145.52
  21  2268.567
  22  2316.39
  23  2228.969
  24  2143.957
  25  2148.444
  26  2180.531
  27  2059.92
  28  2000.624
  29  2006.492
  30  2058.932
  31  2015.23
  32  1965.1
  33  2098.302
  34  2229.773
  35  2374.225
  36  2325.698
  37  2273.34
  38  2238.6
  39  2261.666
  40  2322.964
  41  2320.72
  42  2309.873
  43  2265.345
  44  2131.715
  45  2007.729
  46  1948.686
  47  2013.223
  48  2043.9
  49  2023.748
  50  2070.235
  51  2153.266
  52  2308.322
  53  2226.011
  54  2128.413
  55  2049.683
  56  2014.766
  57  1947.757
  58  2039.666
  59  2176.138
  60  2118.55
  61  1918.465
  62  1931.928
  63  2078.737
  64  2104.263
  65  2049.871
  66  2037.13
  67  2273.137
  68  2340.423
  69  2245.624
  70  2152.596
  71  2110.359
  72  2093.376
  73  1927.282
  74  2003.674
  75  2102.564
  76  2259.128
  77  2225.653
  78  2233.577
  79  2195.514
  80  2214.086
  81  2090.156
  82  2063.377
  83  2053.031
  84  2204.117
  85  2213.978
  86  2182.579
  87  2044.905
  88  1936.47
  89  1939.196
  90  2045.859
  91  2210.345
  92  2280.747
  93  2201.965
  94  2170.149
  95  2230.131
  96  2277.29
  97  2226.646
  98  2129.964
  99  2154.904
 100  2064.09
 101  1972.551
 102  1991.315
 103  2041.176
 104  2014.851
 105  2006.437
 106  2087.542
 107  2143.567
 108  2081.817
 109  2022.261
 110  1851.288
 111  1833.026
 112  1806.488
 113  1910.728
 114  1878.682
 115  2013.588
 116  1970.348
 117  1931.642
 118  1785.031
 119  1765.452
 120  1716.893
 121  1745.193
 122  1756.339
 123  1778.666
 124  1818.283
 125  1729.577
 126  1596.207
 127  1642.623
 128  1642.898
 129  1637.748
 130  1592.902
 131  1546.297
 132  1570.154
 133  1604.881
 134  1659.729
 135  1760.504
 136  1783.887
 137  1727.917
 138  1612.264
 139  1562.71
 140  1555.443
 141  1654.658
 142  1667.454
 143  1627.635
 144  1624.083
 145  1660.949
 146  1804.431
 147  1908.987
 148  2026.723
 149  1955.213
 150  1836.014
 151  1748.269
 152  1756.498
 153  1842.009
 154  2102.375
 155  2120.504
 156  2022.832
 157  1825.316
 158  1786.527
 159  1758.417
 160  1763.233
 161  1856.809
 162  1890.163
 163  1798.489
 164  1775.541
 165  1706.377
 166  1681.434
 167  1752.316
 168  1684.223
 169  1762.787
 170  1801.067
 171  1887.328
 172  1920.218
 173  1889.484
 174  1886.292
 175  1911.68
 176  2037.1
 177  1951.182
 178  1859.826
 179  1830.621
 180  2094.704
 181  2157.474
 182  2144.656
 183  1927.991
 184  1862.73
 185  1966.066
 186  1982.163
 187  1908.564
 188  1964.798
 189  2077.573
 190  2072.194
 191  2113.925
 192  1976.979
 193  1882.937
 194  1775.167
 195  1862.875
 196  1934.618
 197  2083.904
 198  2099.475
 199  2088.639
 200  2066.816
 201  2091.008
 202  2251.682
 203  2152.658
 204  2162.106
 205  2020.297
 206  1978.908
 207  1963.269
 208  1850.646
 209  1887.163
 210  1948.161
 211  1991.607
 212  2014.525
 213  1946.417
 214  1887.924
 215  1925.139
 216  2052.697
 217  1934.269
 218  1814.763
 219  1808.494
 220  1893.381
 221  1935.097
 222  1964.758
 223  2089.903
 224  2158.826
 225  2023.433
 226  1970.091
 227  1959.833
 228  1996.814
 229  1972.933
 230  1985.501
 231  2002.13
 232  2015.627
 233  2003.897
 234  2112.438
 235  2055.608
 236  1941.266
 237  1866.465
 238  1890.473
 239  1904.652
 240  1853.048
 241  1789.969
 242  1813.898
 243  1794.109
 244  1811.236
 245  1835.323
 246  1761.574
 247  1642.439
 248  1618.622
 249  1637.178
 250  1626.803
 251  1527.958
 252  1549.196
 253  1645.992
 254  1725.623
 255  1660.508
 256  1682.157
 257  1645.231
 258  1739.022
 259  1743.071
 260  1733.708
 261  1735.44
 262  1729.343
 263  1759.981
 264  1719.188
 265  1596.578
 266  1580.706
 267  1738.527
 268  1894.364
 269  1915.05
 270  1991.302
 271  2005.699
 272  2013.642
 273  1864.449
 274  1837.882
 275  1868.346
 276  1779.519
 277  1645.202
 278  1651.035
 279  1729.044
 280  1829.189
 281  1867.542
 282  1867.7
 283  1907.68
 284  1916.572
 285  1973.724
 286  1976.028
 287  1870.709
 288  1847.996
 289  1807.508
 290  1848.96
 291  1766.59
 292  1663.291
 293  1734.554
 294  1853.355
 295  1850.978
 296  1777.101
 297  1722.174
 298  1716.783
 299  1807.932
 300  1876.343
 301  1861.789
 302  1759.782
 303  1639.051
 304  1592.03
 305  1690.928
 306  1829.27
 307  1867.072
 308  1836.325
 309  1765.489
 310  1762.568
 311  1621.059
 312  1660.503
 313  1809.895
 314  1854.249
 315  1800.963
 316  1537.503
 317  1609.147
 318  1634.627
 319  1616.071
 320  1667.121
 321  1685.575
 322  1837.2
 323  1741.629
 324  1673.483
 325  1652.284
 326  1759.167
 327  1753.432
 328  1891.041
 329  1965.589
 330  1879.948
 331  1831.181
 332  1779.677
 333  1894.46
 334  1942.494
 335  2051.643
 336  1971.913
 337  1807.325
 338  1781.173
 339  1780.088
 340  1742.608
 341  1753.817
 342  1774.347
 343  1876.485
 344  1890.094
 345  1768.875
 346  1713.686
 347  1706.189
 348  1728.752
 349  1731.443
 350  1656.349
 351  1654.059
 352  1717.344
 353  1751.216
 354  1813.452
 355  1798.82
 356  1829.325
 357  1723.983
 358  1695.876
 359  1860.059
 360  1883.963
 361  1972.409
 362  1897.386
 363  1927.572
 364  1914.21
 365  1869.939
 366  2011.516
 367  2110.728
 368  2078.362
 369  2117.03
 370  2050.049
 371  2057.938
 372  1911.5
 373  1743.622
 374  1731.394
 375  1725.621
 376  1579.75
 377  1576.151
 378  1609.51
 379  1710.438
 380  1614.204
 381  1547.2
 382  1615.767
 383  1640.664
 384  1696.679
 385  1756.661
 386  1691.381
 387  1702.358
 388  1840.45
 389  1913.914
 390  1855.417
 391  1758.96
 392  1684.335
 393  1761.491
 394  1716.929
 395  1799.671
 396  1914.767
 397  1931.603
 398  1952.453
 399  1947.033
 400  1984.999
 401  1951.549
 402  1948.02
 403  1988.322
 404  1828.359
 405  1579.609
 406  1604.205
 407  1686.641
 408  1824.437
 409  1759.027
 410  1749.696
 411  1633.554
 412  1525.617
 413  1445.451
 414  1420.368
 415  1418.509
 416  1575.959
 417  1720.333
 418  1610.127
 419  1534.088
 420  1482.16
 421  1628.032
 422  1676.843
 423  1695.211
 424  1748.947
 425  1689.796
 426  1669.952
 427  1613.831
 428  1669.668
 429  1670.424
 430  1681.835
 431  1643.303
 432  1605.742
 433  1540.556
 434  1518.234
 435  1532.501
 436  1642.57
 437  1785.065
 438  1928.611
 439  1947.273
 440  1961.796
 441  1903.887
 442  1836.923
 443  1789.223
 444  1691.151
 445  1704.855
 446  1717.275
 447  1677.985
 448  1481.071
 449  1445.05
 450  1556.756
 451  1661.068
 452  1792.554
 453  1889.42
 454  1952.048
 455  1963.543
 456  1944.461
 457  1912.65
 458  1803.363
 459  1702.113
 460  1614.584
 461  1543.121
 462  1587.374
 463  1757.466
 464  1882.789
 465  1883.979
 466  1867.239
 467  1784.379
 468  1803.56
 469  1829.827
 470  1877.74
 471  1929.953
 472  1857.623
 473  1742.18
 474  1731.767
 475  1755.449
 476  1787.388
 477  1675.874
 478  1722.685
 479  1754.86
 480  1825.249
 481  1762.515
 482  1807.854
 483  1785.939
 484  1899.744
 485  1736.629
 486  1617.696
 487  1526.089
 488  1606.224
 489  1594.42
 490  1585.852
 491  1548.157
 492  1618.51
 493  1675.642
 494  1770.805
 495  1816.254
 496  1831.27
 497  1784.638
 498  1812.99
 499  1874.504
 500  1885.078
 501  1770.598
 502  1663.744
 503  1746.574
 504  1905.545
 505  1888.022
 506  1894.064
 507  1887.149
 508  1920.963
 509  1756.038
 510  1791.229
 511  1869.731
 512  1898.845
 513  1908.301
 514  1998.005
 515  1998.172
 516  1804.104
 517  1795.267
 518  1875.969
 519  1990.473
 520  1901.906
 521  1949.731
 522  1987.277
 523  1843.776
 524  1687.257
 525  1640.969
 526  1715.774
 527  1807.749
 528  1787.821
 529  1872.288
 530  1823.727
 531  1721.837
 532  1786.488
 533  1907.786
 534  1859.75
 535  1678.823
 536  1775.755
 537  1969.42
 538  2120.326
 539  1980.823
 540  1967.812
 541  1889.61
 542  1852.068
 543  1902.821
 544  1887.83
 545  1911.564
 546  1759.663
 547  1677.843
 548  1622.805
 549  1624.384
 550  1599.262
 551  1703.677
 552  1771.099
 553  1740.881
 554  1760.558
 555  1761.606
 556  1716.565
 557  1661.866
 558  1683.882
 559  1601.54
 560  1538.297
 561  1462.092
 562  1585.39
 563  1595.832
 564  1699.842
 565  1754.166
 566  1696.988
 567  1682.139
 568  1673.109
 569  1714.05
 570  1774.543
 571  1736.77
 572  1727.056
 573  1636.603
 574  1553.726
 575  1431.124
 576  1522.966
 577  1539.979
 578  1536.979
 579  1481.704
 580  1583.472
 581  1709.314
 582  1777.038
 583  1753.921
 584  1712.274
 585  1653.492
 586  1733.155
 587  1746.716
 588  1820.26
 589  1731.335
 590  1737.407
 591  1762.656
 592  1914.353
 593  1940.512
 594  2003.577
 595  2113.751
 596  2289.879
 597  2536.849
 598  2794.507
 599  2858.751
 600  2778.665
 601  2820.949
 602  2947.063
 603  3021.013
 604  3004.374
 605  2918.682
 606  2711.116
 607  2397.761
 608  2242.634
 609  2235.985
 610  2191.212
 611  2034.818
 612  1974.277
 613  1991.021
 614  2069.768
 615  1989.345
 616  1920.843
 617  1870.005
 618  1792.138
 619  1775.106
 620  1710.461
 621  1689.565
 622  1754.792
 623  1755.455
 624  1885.244
 625  1879.969
 626  1784.481
 627  1699.922
 628  1640.645
 629  1690.689
 630  1670.835
 631  1704.118
 632  1655.891
 633  1741.379
 634  1762.763
 635  1786.964
 636  1673.951
 637  1675.411
 638  1786.492
 639  1772.5
 640  1771.62
 641  1599.928
 642  1545.843
 643  1633.818
 644  1715.719
 645  1740.028
 646  1642.869
 647  1622.585
 648  1784.914
 649  1856.129
 650  2000.482
 651  2053.14
 652  2029.379
 653  1941.986
 654  1880.103
 655  1727.213
 656  1589.208
 657  1654.539
 658  1750.112
 659  1940.581
 660  1991.221
 661  2004.765
 662  2041.014
 663  1933.032
 664  1979.949
 665  2113.138
 666  2208.505
 667  2238.23
 668  2167.42
 669  2066.968
 670  1871.695
 671  1694.952
 672  1687.165
 673  1709.458
 674  1817.537
 675  1905.511
 676  1915.768
 677  1880.645
 678  1742.106
 679  1650.711
 680  1732.78
 681  1795.871
 682  1818.907
 683  1688.134
 684  1773.329
 685  1817.716
 686  1797.194
 687  1558.478
 688  1486.725
 689  1702.396
 690  1795.036
 691  1835.552
 692  1852.665
 693  1871.532
 694  1786.106
 695  1567.456
 696  1527.572
 697  1464.821
 698  1475.365
 699  1423.077
 700  1505.231
 701  1510.865
 702  1508.288
 703  1436.868
 704  1416.646
 705  1498.499
 706  1493.235
 707  1566.843
 708  1534.509
 709  1549.605
 710  1550.042
 711  1538.65
 712  1598.985
 713  1622.584
 714  1567.027
 715  1494.228
 716  1375.455
 717  1409.928
 718  1512.307
 719  1574.42
 720  1565.622
 721  1542.414
 722  1556.254
 723  1496.939
 724  1416.549
 725  1314.442
 726  1469.341
 727  1607.81
 728  1558.923
 729  1485.484
 730  1386.371
 731  1393.493
 732  1424.632
 733  1418.369
 734  1398.745
 735  1389.75
 736  1397.742
 737  1480.128
 738  1604.672
 739  1728.36
 740  1789.899
 741  1660.181
 742  1573.46
 743  1681.619
 744  1669.856
 745  1761.908
 746  1663.527
 747  1693.289
 748  1674.667
 749  1681.81
 750  1799.021
 751  1846.723
 752  1918.861
 753  1973.605
 754  1992.761
 755  1853.143
 756  1746.436
 757  1746.265
 758  1804.65
 759  1797.565
 760  1790.067
 761  1833.905
 762  1810.958
 763  1797.994
 764  1712.49
 765  1769.744
 766  1742.604
 767  1705.915
 768  1647.796
 769  1754.502
 770  1915.457
 771  2000.981
 772  2005.231
 773  1766.307
 774  1672.858
 775  1695.841
 776  1677
 777  1671.087
 778  1642.643
 779  1743.626
 780  1777.127
 781  1746.24
 782  1703.516
 783  1654.724
 784  1659.305
 785  1627.936
 786  1673.917
 787  1740.003
 788  1833.694
 789  1770.319
 790  1668.108
 791  1676.991
 792  1665.401
 793  1718.489
 794  1728.771
 795  1728.162
 796  1759.735
 797  1650.577
 798  1778.364
 799  1762.867
 800  1861.045
 801  1872.315
 802  1875.411
 803  1909.702
 804  1911.561
 805  1848.314
 806  1911.898
 807  1940.693
 808  1956.457
 809  1777.382
 810  1796.221
 811  1656.407
 812  1698.105
 813  1693.05
 814  1836.971
 815  1894.143
 816  1923.973
 817  1800.998
 818  1795.281
 819  1858.693
 820  1946.658
 821  1802.04
 822  1697.562
 823  1682.739
 824  1626.533
 825  1624.326
 826  1650.212
 827  1740.969
 828  1804.188
 829  1702.972
 830  1679.964
 831  1666.357
 832  1778.977
 833  2001.949
 834  2028.205
 835  1887.856
 836  1722.386
 837  1759.534
 838  1826.882
 839  1806.54
 840  1817.927
 841  1812.334
 842  1840.889
 843  1756.358
 844  1709.306
 845  1729.792
 846  1762.615
 847  1900.899
 848  1907.545
 849  1848.007
 850  1828.007
 851  1836.466
 852  1817.451
 853  1802.463
 854  1698.566
 855  1627.097
 856  1612.266
 857  1701.369
 858  1845.806
 859  1960.57
 860  2031.937
 861  1960.694
 862  1863.758
 863  1780.995
 864  1845.707
 865  1881.628
 866  1965.531
 867  1892.457
 868  1805.495
 869  1692.189
 870  1702.364
 871  1858.234
 872  1950.29
 873  1944.782
 874  1961.553
 875  1830.913
 876  1670.458
 877  1579.554
 878  1657.296
 879  1773.971
 880  1808.341
 881  1815.782
 882  1878.59
 883  1880.637
 884  1862.299
 885  1868.09
 886  1894.99
 887  1963.674
 888  1944.187
 889  1997.344
 890  2056.861
 891  2052.055
 892  1987.67
 893  1992.824
 894  2070.26
 895  2082.519
 896  2149.017
 897  2249.646
 898  2281.597
 899  2255.168
 900  2148.963
 901  2223.431
 902  2224.228
 903  2155.728
 904  1979.054
 905  2029.335
 906  2114.768
 907  2094.666
 908  1939.071
 909  1816.02
 910  1766.977
 911  1754.582
 912  1864.719
 913  1912.386
 914  1967.848
 915  1919.186
 916  1916.704
 917  1982.407
 918  1974.816
 919  1976.82
 920  2048.548
 921  2183.229
 922  2178.607
 923  2184.533
 924  2057.287
 925  2025.947
 926  1949.521
 927  2076.24
 928  2120.671
 929  2134.441
 930  2120.376
 931  2096.565
 932  2036.823
 933  1993.236
 934  1985.969
 935  1894.206
 936  1847.825
 937  1858.042
 938  1979.356
 939  2034.377
 940  2068.945
 941  2036.073
 942  2014.277
 943  2046.179
 944  2117.112
 945  2055.127
 946  1929.389
 947  1905.406
 948  1757.84
 949  1762.325
 950  1934.27
 951  2038.565
 952  2106.21
 953  2165.41
 954  2307.693
 955  2362.423
 956  2281.966
 957  2080.02
 958  2093.303
 959  2060.912
 960  2145.643
 961  2088.948
 962  2042.292
 963  1922.753
 964  1894.557
 965  2122.01
 966  2235.008
 967  2216.53
 968  2086.545
 969  2110.154
 970  2087.271
 971  2109.132
 972  2037.055
 973  2064.401
 974  2209.07
 975  2303.194
 976  2281.604
 977  2106.883
 978  2086.625
 979  2149.119
 980  2204.589
 981  2289.233
 982  2196.916
 983  2067.819
 984  1976.899
 985  2010.249
 986  2032.396
 987  2173.492
 988  2085.438
 989  2004.346
 990  1909.159
 991  1874.38
 992  1912.367
 993  1906.571
 994  1916.347
 995  1999.806
 996  2144.115
 997  2204.17
 998  2219.6
 999  2256.32
1000  2172.592
1001  1942.311
1002  1774.638
1003  1896.245
1004  1889.181
1005  1843.578
1006  1810.838
1007  1852.315
1008  1963.823
1009  1956.798
1010  1980.774
1011  2058.282
1012  2197.95
1013  2242.501
1014  2264.472
1015  2299.62
1016  2443.279
1017  2452.516
1018  2354.476
1019  2362.883
1020  2379.781
1021  2324.937
1022  2285.69
1023  2370.234
