# Input file       =  1209718813.113208_cleaned.dat
# Candidate        =  PSR_0332+5434
# Telescope        =  AR
# Epoch_topo       =  58245.375371680646
# Epoch_bary       =  N/A
# T_sample         =  0.002
# Data Folded      =  7340032
# Data Avg         =  0.110327920609312
# Data StdDev      =  4.36050136747837 
# Profile Bins     =  512
# Profile Avg      =  1581.61987838215 
# Profile StdDev   =  522.096068853226 
# Reduced chi-sqr  =  0.988
# Prob(Noise)      <  0.571   (~0.0 sigma)
# P_topo (ms)      =  714.540884999276  +/- 0.000588
# P'_topo (s/s)    =  -0                +/- 3.1e-10
# P''_topo (s/s^2) =  0                 +/- 1.37e-13
# P_bary (ms)      =  N/A
# P'_bary (s/s)    =  N/A
# P''_bary (s/s^2) =  N/A
# P_orb (s)        =  N/A
# asin(i)/c (s)    =  N/A
# eccentricity     =  N/A
# w (rad)          =  N/A
# T_peri           =  N/A
######################################################
   0  1486.767
   1  1826.206
   2  1696.798
   3  1504.354
   4  1550.955
   5  1209.594
   6  1472.983
   7  1663.167
   8  1694.779
   9  1574.776
  10  1084.669
  11  1072.814
  12  1147.507
  13  1744.545
  14  1937.89
  15  1372.358
  16  1335.104
  17  1411.961
  18  1574.17
  19  2226.933
  20  2024.951
  21  1752.559
  22  2034.044
  23  1745.35
  24  1286.313
  25  1471.703
  26  1671.419
  27  1825.552
  28  1751.408
  29  1512.537
  30  1358.527
  31  1216.494
  32  1119.472
  33  1362.423
  34  1422.054
  35  1418.579
  36  1411.396
  37  1269.326
  38  1526.099
  39  1644.296
  40  1971.772
  41  1981.103
  42  1927.944
  43  1905.532
  44  1956.331
  45  1707.944
  46  1519.983
  47  1893.677
  48  2103.733
  49  1905.046
  50  1707.701
  51  1821.029
  52  1570.718
  53  1583.846
  54  1235.314
  55  581.7558
  56  1101.521
  57  1272.824
  58  1165.983
  59  1188.55
  60  1123.658
  61  801.7719
  62  1038.177
  63  1314.47
  64  1530.919
  65  1949.288
  66  1595.278
  67  1705.73
  68  1472.085
  69  1624.636
  70  1377.711
  71  1344.137
  72  1460.865
  73  1762.69
  74  1358.618
  75  1389.721
  76  922.5956
  77  709.059
  78  651.7958
  79  667.8889
  80  749.9355
  81  1103.517
  82  1286.306
  83  701.8547
  84  857.3022
  85  912.6053
  86  984.4227
  87  1232.555
  88  1015.292
  89  616.6775
  90  821.7535
  91  1272.159
  92  1135.035
  93  960.8314
  94  931.4277
  95  988.9903
  96  967.7526
  97  890.1924
  98  964.5392
  99  993.619
 100  844.9131
 101  811.5978
 102  912.4053
 103  1161.24
 104  870.873
 105  1089.57
 106  1403.696
 107  1261.059
 108  1388.424
 109  1483.444
 110  1431.194
 111  1645.011
 112  1335.425
 113  1417.684
 114  1440.675
 115  1099.67
 116  793.8239
 117  969.3016
 118  1208.292
 119  1180.451
 120  1040.029
 121  1237.167
 122  1640.986
 123  1151.019
 124  972.0937
 125  1465.158
 126  1333.021
 127  1222.734
 128  1444.442
 129  1623.353
 130  1616.55
 131  1615.791
 132  1200.669
 133  982.273
 134  1165.226
 135  1432.995
 136  1316.557
 137  1325.571
 138  1578.837
 139  1638.46
 140  1176.17
 141  1247.659
 142  1434.564
 143  1711.667
 144  1562.574
 145  1210.358
 146  1318.371
 147  1967.663
 148  1881.518
 149  1521.796
 150  1276.616
 151  1757.517
 152  1531.99
 153  1505.285
 154  1638.78
 155  1627.38
 156  1763.444
 157  1555.847
 158  1729.63
 159  1631.663
 160  1667.555
 161  1779.863
 162  1999.727
 163  1636.267
 164  1415.964
 165  1534.95
 166  1220.264
 167  1213.695
 168  1532.133
 169  1649.896
 170  1879.649
 171  2065.539
 172  2033.512
 173  1837.742
 174  1571.65
 175  1679.985
 176  1985.192
 177  1905.928
 178  1786.46
 179  2010.531
 180  2164.967
 181  2099.607
 182  2231.672
 183  1984.307
 184  1992.75
 185  1536.675
 186  1527.882
 187  1685.016
 188  1982.731
 189  2037.926
 190  1821.639
 191  1633.021
 192  1432.308
 193  1694.078
 194  1578.62
 195  1783.797
 196  1454.404
 197  1645.871
 198  1730.228
 199  1729.353
 200  1576.602
 201  2029.26
 202  2360.338
 203  2508.27
 204  2305.519
 205  1817.65
 206  1682.772
 207  1401.703
 208  1789.004
 209  1877.126
 210  1948.538
 211  2300.75
 212  2399.649
 213  1897.771
 214  1749.056
 215  1931.546
 216  2053.346
 217  2031.38
 218  1847.106
 219  1642.687
 220  1385.432
 221  1556.189
 222  1656.856
 223  1953.088
 224  1818.848
 225  1515.655
 226  1225.567
 227  1564.248
 228  1545.285
 229  1861.374
 230  1618.781
 231  1582.18
 232  1872.51
 233  1734.25
 234  1512.782
 235  1521.028
 236  1871.104
 237  1627.16
 238  1333.865
 239  1469.215
 240  1642.891
 241  1381.517
 242  1544.351
 243  1639.287
 244  1905.001
 245  1936.054
 246  1969.379
 247  1659.508
 248  1168.894
 249  1497.714
 250  1591.568
 251  1555.91
 252  1625.519
 253  1722.024
 254  2019.322
 255  1874.935
 256  1745.99
 257  1626.348
 258  1892.756
 259  1940.459
 260  1744.895
 261  1723.472
 262  1659.938
 263  1479.383
 264  1478.268
 265  1380.263
 266  1660.482
 267  1838.623
 268  2016.176
 269  2123.396
 270  1647.08
 271  1325.572
 272  1746.465
 273  1797.021
 274  2027.646
 275  1941.439
 276  2123.308
 277  1976.03
 278  1817.346
 279  1926.992
 280  1967.783
 281  2084.639
 282  1887.516
 283  1911.785
 284  1973.641
 285  1795.953
 286  1736.947
 287  1769.702
 288  1764.741
 289  1585.319
 290  1524.354
 291  1293.424
 292  1351.731
 293  1863.454
 294  1559.608
 295  1646.624
 296  1728.411
 297  1626.829
 298  1396.82
 299  1748.778
 300  1902.011
 301  1797.034
 302  1340.368
 303  1213.028
 304  1503.759
 305  1564.948
 306  1410.632
 307  1369.57
 308  1045.465
 309  1028.691
 310  1213.815
 311  1360.612
 312  1294.803
 313  1449.874
 314  1449.463
 315  1066.538
 316  1105.141
 317  1636.739
 318  1505.509
 319  1469.206
 320  1663.416
 321  1457.161
 322  1484.879
 323  1186.238
 324  1512.771
 325  1442.678
 326  1914.455
 327  1824.934
 328  1684.952
 329  1856.21
 330  1429.648
 331  1346.421
 332  1225.609
 333  1062.605
 334  1621.897
 335  1847.164
 336  1779.193
 337  1902.463
 338  1704.687
 339  1600.109
 340  1434.682
 341  1493.188
 342  1980.515
 343  2107.101
 344  2250.094
 345  1909.732
 346  1618.979
 347  1353.166
 348  1451.911
 349  1541.863
 350  1867.709
 351  1703.365
 352  1843.73
 353  1774.951
 354  1984.91
 355  1279.939
 356  1211.228
 357  1371.246
 358  1806.727
 359  1658.321
 360  1580.572
 361  1455.229
 362  1504.794
 363  1281.409
 364  1365.292
 365  1544.927
 366  1872.425
 367  1711.409
 368  1502.417
 369  1932.178
 370  1662.442
 371  1634.042
 372  1776.163
 373  1827.999
 374  1597.678
 375  1764.014
 376  1701.273
 377  1497.853
 378  1188.999
 379  1300.861
 380  1439.959
 381  1098.715
 382  1331.606
 383  1187.171
 384  1287.013
 385  1693.476
 386  1708.074
 387  1294.536
 388  1114.591
 389  1283.583
 390  1289.219
 391  847.1623
 392  709.5004
 393  1348.509
 394  1614.648
 395  1567.147
 396  1352.132
 397  1131.454
 398  1486.892
 399  1392.973
 400  1226.44
 401  1117.998
 402  1263.027
 403  1401.078
 404  1829.326
 405  1662.958
 406  1773.831
 407  1751.68
 408  1735.622
 409  1549.42
 410  1475.516
 411  1567.702
 412  1630.003
 413  1915.96
 414  1741.467
 415  1816.335
 416  1506.141
 417  1826.344
 418  1627.899
 419  1673.252
 420  1815.162
 421  1931.061
 422  1957.494
 423  1445.705
 424  1217.649
 425  958.5401
 426  1505.476
 427  1929.928
 428  1557.926
 429  1580.583
 430  1498.932
 431  1566.283
 432  1229.865
 433  1426.01
 434  1547.422
 435  1543.56
 436  1405.836
 437  975.2743
 438  1128.266
 439  1196.899
 440  1116.689
 441  1112.128
 442  1177.246
 443  1137.505
 444  1448.915
 445  1793.585
 446  1537.648
 447  1817.788
 448  1701.033
 449  1939.477
 450  1757.315
 451  1733.15
 452  1473.951
 453  1740.835
 454  2136.758
 455  1930.229
 456  1700.344
 457  1589.305
 458  1780.093
 459  2020.207
 460  1871.884
 461  1947.603
 462  1723.429
 463  1676.691
 464  1786.789
 465  1662.054
 466  1922.533
 467  1861.149
 468  1722.241
 469  1363.462
 470  1650.41
 471  2002.788
 472  1461.897
 473  1477.074
 474  1785.015
 475  2039.008
 476  2491.614
 477  2973.221
 478  3693.105
 479  3874.626
 480  3228.769
 481  3055.234
 482  2309.636
 483  1884.538
 484  1472.98
 485  1599.545
 486  1939.373
 487  1983.014
 488  1730.202
 489  1620.525
 490  1525.782
 491  1663.823
 492  1853.073
 493  1809.53
 494  2082.856
 495  2017.301
 496  1919.637
 497  2023.491
 498  1744.184
 499  1895.705
 500  1610.97
 501  1520.61
 502  1774.127
 503  2020.725
 504  1681.464
 505  1942.517
 506  1499.69
 507  1037.505
 508  1116.702
 509  1614.549
 510  1672.377
 511  1374.592
