# Input file       =  1209475210.112065_cleaned.dat
# Candidate        =  PSR_0332+5434
# Telescope        =  AR
# Epoch_topo       =  58242.555892500750
# Epoch_bary       =  N/A
# T_sample         =  0.002
# Data Folded      =  7340032
# Data Avg         =  0.360056305961085
# Data StdDev      =  5.77034878792356 
# Profile Bins     =  512
# Profile Avg      =  5161.82472352451 
# Profile StdDev   =  690.901381331079 
# Reduced chi-sqr  =  0.799
# Prob(Noise)      <  1   (~0.0 sigma)
# P_topo (ms)      =  714.543835576742  +/- 0.000517
# P'_topo (s/s)    =  -0                +/- 2.73e-10
# P''_topo (s/s^2) =  0                 +/- 1.21e-13
# P_bary (ms)      =  N/A
# P'_bary (s/s)    =  N/A
# P''_bary (s/s^2) =  N/A
# P_orb (s)        =  N/A
# asin(i)/c (s)    =  N/A
# eccentricity     =  N/A
# w (rad)          =  N/A
# T_peri           =  N/A
######################################################
   0  4912.991
   1  5036.679
   2  5184.359
   3  5000.644
   4  4537.835
   5  4780.357
   6  4718.295
   7  5367.792
   8  5449.231
   9  5348.415
  10  5308.211
  11  5462.364
  12  5601.334
  13  5213.386
  14  5252.548
  15  5407.027
  16  5368.167
  17  5316.754
  18  5467.522
  19  5312.999
  20  5071.07
  21  4814.365
  22  4695.378
  23  4663.792
  24  5083.541
  25  5174.317
  26  5425.912
  27  5701.86
  28  5979.604
  29  6135.886
  30  6042.999
  31  5778.52
  32  5862.85
  33  6049.094
  34  5850.746
  35  5874.176
  36  5884.889
  37  5716.519
  38  5495.994
  39  5232.81
  40  5281.719
  41  5544.955
  42  5395.055
  43  5316.62
  44  5687.378
  45  5977.287
  46  5883.988
  47  6047.351
  48  5921.261
  49  5917.751
  50  5829.957
  51  5591.768
  52  5264.452
  53  5236.701
  54  5262.249
  55  4945.407
  56  4953.024
  57  5216.473
  58  5290.181
  59  5255.808
  60  5247.746
  61  5101.19
  62  5233.056
  63  5569.423
  64  5480.423
  65  5270.363
  66  5363.031
  67  4841.935
  68  4725.333
  69  4964.562
  70  5145.161
  71  4988.722
  72  5165.333
  73  5387.027
  74  5501.819
  75  5502.184
  76  5139.827
  77  5495.429
  78  5531.824
  79  5418.106
  80  5086.162
  81  5021.637
  82  5359.606
  83  5630.761
  84  5761.332
  85  5758.75
  86  5576.649
  87  5133.938
  88  4831.261
  89  4795.947
  90  4707.913
  91  4694.36
  92  4890.329
  93  5174.557
  94  5015.875
  95  5009.838
  96  4751.427
  97  4650.457
  98  4611.046
  99  4830.569
 100  4926.134
 101  4834.917
 102  4759.17
 103  4620.215
 104  4364.865
 105  4514.373
 106  4317.773
 107  4552.113
 108  4569.732
 109  4331.69
 110  4605.125
 111  4796.794
 112  4786.773
 113  4636.355
 114  4915.107
 115  5163.265
 116  4891.39
 117  5027.388
 118  5158.328
 119  4910.164
 120  4086.86
 121  4190.271
 122  4391.876
 123  4694.464
 124  4543.025
 125  4640.747
 126  4615.105
 127  4273.617
 128  4577.974
 129  4653.576
 130  4918.729
 131  4809.213
 132  5281.183
 133  5458.542
 134  5312.371
 135  5016.509
 136  5123.319
 137  4996.106
 138  4998.357
 139  5023.046
 140  5147.511
 141  4919.555
 142  5131.025
 143  5356.354
 144  5367.733
 145  5042.446
 146  5139.06
 147  5036.937
 148  5021.145
 149  4930.09
 150  4933.419
 151  5278.622
 152  5475.634
 153  5457.297
 154  5910.45
 155  6105.017
 156  5914.439
 157  5848.443
 158  5771.913
 159  5393.845
 160  5152.563
 161  5087.445
 162  5244.502
 163  5406.322
 164  5445.021
 165  5772.91
 166  5618.107
 167  5499.125
 168  5121.691
 169  5146.453
 170  5169.769
 171  5237.359
 172  5456.513
 173  5386.78
 174  5378.035
 175  5542.302
 176  5440.125
 177  5139.061
 178  5435.251
 179  5619.979
 180  5415.943
 181  5182.117
 182  4953.782
 183  5175.797
 184  5196.098
 185  5116.886
 186  5006.035
 187  4927.561
 188  4883.15
 189  5095.638
 190  5373.477
 191  5632.166
 192  5196.16
 193  5105.638
 194  5265.971
 195  5083.489
 196  5248.34
 197  5371.98
 198  5294.372
 199  5310.129
 200  5477.768
 201  5136.549
 202  5625.201
 203  5548.143
 204  5492.895
 205  5785.374
 206  5682.545
 207  5305.405
 208  5196.522
 209  5582.737
 210  5527.162
 211  5248.059
 212  4983.298
 213  5004.619
 214  4944.623
 215  4866.768
 216  4657.266
 217  4499.061
 218  4500.604
 219  4034.897
 220  4229.572
 221  4278.526
 222  4169.257
 223  4095.589
 224  4008.296
 225  4025.355
 226  4041.164
 227  4335.68
 228  4538.169
 229  4263.966
 230  4243.651
 231  4024.419
 232  3841.946
 233  4086.119
 234  4639.862
 235  4520.345
 236  4687.002
 237  4700.518
 238  4738.152
 239  4387.928
 240  4709.83
 241  4676.109
 242  4731.897
 243  5228.352
 244  5449.922
 245  5557.414
 246  5381.886
 247  5081.256
 248  4840.911
 249  4894.946
 250  5107.163
 251  5124.002
 252  4835.559
 253  4586.427
 254  4668.586
 255  4969.329
 256  5291.442
 257  4936.382
 258  4472.38
 259  4943.198
 260  5192.703
 261  5063.614
 262  5521.316
 263  5591.272
 264  5093.645
 265  4569.152
 266  4240.506
 267  4563.29
 268  4508.175
 269  4362.669
 270  4105.264
 271  4319.128
 272  3988.29
 273  3913.619
 274  4589.844
 275  4769.327
 276  4373.919
 277  4652.111
 278  4684.21
 279  4623.934
 280  4785.244
 281  5223.165
 282  5108.904
 283  5060.986
 284  5355.367
 285  5208.342
 286  4965.531
 287  4977.672
 288  5168.284
 289  4865.084
 290  5172.489
 291  5425.2
 292  5223.623
 293  5099.729
 294  5280.671
 295  5082.826
 296  4933.075
 297  5517.618
 298  6204.543
 299  6679.08
 300  6919.245
 301  6830.833
 302  6511.358
 303  5987.594
 304  5696.029
 305  4949.857
 306  4776.151
 307  4912.058
 308  5083.47
 309  4989.158
 310  4779.562
 311  4973.528
 312  5122.486
 313  5679.428
 314  5438.53
 315  5282.48
 316  5059.626
 317  4686.395
 318  4881.416
 319  4816.147
 320  4746.243
 321  4926.605
 322  4706.327
 323  4405.864
 324  4392.361
 325  4507.632
 326  4853.52
 327  4610.137
 328  4550.192
 329  5113.828
 330  4880.447
 331  4888.863
 332  4519.36
 333  4979.042
 334  4917.256
 335  4478.873
 336  4745.021
 337  5098.886
 338  5409.161
 339  5612.175
 340  5412.531
 341  5524.438
 342  5513.625
 343  5580.524
 344  5265.166
 345  5243.764
 346  5606.277
 347  5547.402
 348  5674.544
 349  5548.168
 350  5503.547
 351  5453.69
 352  5543.264
 353  5575.808
 354  5458.004
 355  5397.806
 356  5330.156
 357  5654.671
 358  5651.189
 359  5654.068
 360  5324.577
 361  5588.807
 362  5816.997
 363  5596.573
 364  5637.991
 365  5915.945
 366  5783.969
 367  5425.604
 368  5475.887
 369  5270.046
 370  5249.726
 371  5378.256
 372  5256.79
 373  5166.591
 374  5568.948
 375  5521.904
 376  5375.56
 377  4917.385
 378  5006.351
 379  5589
 380  5671.624
 381  5700.286
 382  5354.754
 383  4892.783
 384  5062.29
 385  5412.813
 386  5365.299
 387  5636.41
 388  5354.103
 389  5304.39
 390  4995.562
 391  5134.734
 392  5307.172
 393  5318.877
 394  5271.371
 395  5435.622
 396  5583.053
 397  5383.172
 398  5261.417
 399  4784.45
 400  5064.707
 401  5037.944
 402  5317.944
 403  4978.377
 404  4906.758
 405  4881.957
 406  4911.22
 407  5479.865
 408  5640.303
 409  5751.693
 410  5697.658
 411  5811.003
 412  5814.305
 413  5689.562
 414  5718.015
 415  5802.988
 416  6064.797
 417  5598.977
 418  5375.23
 419  5453.53
 420  5458.804
 421  5161.719
 422  5203.522
 423  5194.066
 424  5510.869
 425  5325.867
 426  4995.161
 427  4737.633
 428  4727.175
 429  4883.705
 430  4903.15
 431  4959.034
 432  4885.876
 433  4844.79
 434  4666.77
 435  4640.341
 436  5080.976
 437  5539.141
 438  5179.828
 439  5101.469
 440  5448.511
 441  5777.711
 442  5335.971
 443  5331.547
 444  5503.067
 445  5553.491
 446  5257.095
 447  5024.573
 448  4741.106
 449  4897.048
 450  4766.956
 451  4991.007
 452  4991.791
 453  4838.098
 454  5066.38
 455  5252.167
 456  5315.787
 457  5106.442
 458  5013.157
 459  5367.94
 460  5275.504
 461  4946.195
 462  5229.783
 463  5408.824
 464  5351.39
 465  4969.419
 466  5188.895
 467  5077.701
 468  4733.041
 469  5124.641
 470  5412.644
 471  5315.633
 472  5550.603
 473  5295.764
 474  5037.075
 475  5820.126
 476  5906.438
 477  5553.227
 478  5265.609
 479  5207.749
 480  5196.697
 481  5198.425
 482  4959.45
 483  4768.282
 484  4608.024
 485  5182.21
 486  5254.186
 487  5182.16
 488  5132.462
 489  5257.518
 490  5276.91
 491  5375.386
 492  5354.911
 493  5225.532
 494  5503.399
 495  5826.18
 496  5675.213
 497  5312.87
 498  5500.952
 499  5662.862
 500  5472.073
 501  5628.244
 502  5788.609
 503  5584.106
 504  5462.406
 505  4955.856
 506  5129.913
 507  5132.644
 508  5154.716
 509  5096.965
 510  4880.561
 511  5042.334
