# Input file       =  1209992232.11647_cleaned.dat
# Candidate        =  PSR_0332+5434
# Telescope        =  AR
# Epoch_topo       =  58248.539943477663
# Epoch_bary       =  N/A
# T_sample         =  0.002
# Data Folded      =  7340032
# Data Avg         =  0.143650809518086
# Data StdDev      =  3.58708512686495 
# Profile Bins     =  512
# Profile Avg      =  2059.38788490145 
# Profile StdDev   =  429.492593981478 
# Reduced chi-sqr  =  1.227
# Prob(Noise)      <  0.000335   (~3.4 sigma)
# P_topo (ms)      =  714.53822745609   +/- 0.000358
# P'_topo (s/s)    =  -0                +/- 1.89e-10
# P''_topo (s/s^2) =  0                 +/- 8.34e-14
# P_bary (ms)      =  N/A
# P'_bary (s/s)    =  N/A
# P''_bary (s/s^2) =  N/A
# P_orb (s)        =  N/A
# asin(i)/c (s)    =  N/A
# eccentricity     =  N/A
# w (rad)          =  N/A
# T_peri           =  N/A
######################################################
   0  1994.995
   1  1734.893
   2  2117.482
   3  2269.684
   4  2016.943
   5  1450.612
   6  1498.615
   7  1792.573
   8  1850.649
   9  1556.545
  10  1693.973
  11  1674.878
  12  1679.109
  13  1906.406
  14  2124.52
  15  2123.665
  16  1682.186
  17  1696.193
  18  1834.469
  19  1797.772
  20  1810.919
  21  1726.092
  22  1759.88
  23  1773.752
  24  1572.42
  25  1644.859
  26  1568.446
  27  1561.238
  28  1634.568
  29  1427.883
  30  1992.847
  31  2185.173
  32  1927.987
  33  2008.99
  34  2180.805
  35  2194.568
  36  1960.842
  37  2135.673
  38  1851.284
  39  1715.373
  40  1765.292
  41  2132.678
  42  2258.339
  43  2219.777
  44  2195.477
  45  2004.898
  46  1766.047
  47  1586.148
  48  1588.615
  49  1766.41
  50  1921.197
  51  2123.684
  52  2027.892
  53  2041.925
  54  1953.021
  55  2052.798
  56  2026.763
  57  2152.421
  58  2338.705
  59  2619.259
  60  2640.912
  61  2514.303
  62  2467.355
  63  2382.012
  64  2256.965
  65  2021.82
  66  2016.913
  67  1834.454
  68  2141.51
  69  2461.746
  70  2683.329
  71  2494.432
  72  2207.261
  73  2317.791
  74  2184.219
  75  2033.238
  76  2004.101
  77  2243.646
  78  2005.283
  79  1654.692
  80  1708.805
  81  1916.962
  82  1660.703
  83  1764.346
  84  1722.784
  85  1741.527
  86  2018.783
  87  2190.297
  88  2174.841
  89  2074.56
  90  2022.6
  91  1910.063
  92  1900.72
  93  1978.711
  94  2146.21
  95  2127.557
  96  2225.708
  97  1948.594
  98  2027.671
  99  1869.007
 100  1882.213
 101  2325.752
 102  2389.581
 103  2549.56
 104  2251.773
 105  2225.211
 106  1880.308
 107  1756.437
 108  2340.822
 109  2188.147
 110  2220.406
 111  2353.712
 112  2168.411
 113  2015.64
 114  1786.422
 115  1857.054
 116  2125.119
 117  2322.574
 118  2283.608
 119  2291.291
 120  2014.647
 121  1385.517
 122  1633.619
 123  2092.48
 124  2113.475
 125  2210.252
 126  2380.899
 127  2482.663
 128  2312.591
 129  2323.911
 130  2404.828
 131  2395.647
 132  2339.709
 133  2183.777
 134  2104.99
 135  2123.654
 136  2512.799
 137  2640.689
 138  2246.052
 139  2079.933
 140  2591.588
 141  2337.078
 142  2069.122
 143  2024.8
 144  1842.985
 145  1877.671
 146  1911.935
 147  1958.953
 148  1911.24
 149  2026.855
 150  2063.61
 151  2089.335
 152  1860.86
 153  2147.569
 154  2096.802
 155  2139
 156  2539.778
 157  2562.194
 158  2092.002
 159  1908.721
 160  2352.795
 161  2587.578
 162  1956.367
 163  2477.963
 164  2390.294
 165  2159.942
 166  1995.499
 167  1932.866
 168  1855.439
 169  2005.769
 170  2105.436
 171  1848.101
 172  1448.875
 173  1751.546
 174  1504.009
 175  1619.885
 176  1827.996
 177  1754.645
 178  2128.837
 179  1962.696
 180  2142.202
 181  2127.776
 182  1985.096
 183  1928.387
 184  1986.324
 185  2049.344
 186  2051.76
 187  2306.537
 188  2405.208
 189  2211.688
 190  2057.236
 191  1964.452
 192  2167.52
 193  2186.644
 194  2534.357
 195  3004.819
 196  3254.124
 197  3845.179
 198  4298.516
 199  4286.583
 200  4007.736
 201  3489.352
 202  2788.78
 203  2222.802
 204  2263.452
 205  1903.215
 206  1630.413
 207  1958.911
 208  2235.587
 209  2061.977
 210  2327.397
 211  2486.77
 212  2371.125
 213  2222.076
 214  2373.349
 215  2035.225
 216  2073.944
 217  2551.647
 218  2339.56
 219  1943.157
 220  1875.942
 221  1898.73
 222  1604.319
 223  1706.906
 224  1877.072
 225  2147.632
 226  2016.814
 227  1807.625
 228  1815.621
 229  1854.942
 230  1782.203
 231  2111.255
 232  1905.606
 233  2155.072
 234  2253.785
 235  2148.341
 236  2035.069
 237  2099.513
 238  2469.379
 239  2458.274
 240  2516.56
 241  2697.889
 242  2645.593
 243  2708.62
 244  2883.366
 245  2601.994
 246  2208.197
 247  2189.869
 248  2474.253
 249  2396.186
 250  2374.908
 251  2738.355
 252  2214.017
 253  2230.68
 254  2259.395
 255  2381.609
 256  2518.468
 257  2490.125
 258  2512.115
 259  2377.8
 260  2191.542
 261  2494.541
 262  2386.269
 263  2339.578
 264  2392.308
 265  2364.49
 266  2327.558
 267  2317.829
 268  2731.192
 269  2401.689
 270  2011.428
 271  2441.618
 272  2486.129
 273  2216.576
 274  2352.01
 275  2360.516
 276  2153.47
 277  2178.209
 278  2038.806
 279  2117.799
 280  1802.536
 281  1846.19
 282  1969.318
 283  1612.479
 284  1918.807
 285  2196.122
 286  1972.336
 287  1878.699
 288  2369.966
 289  1920.814
 290  2216.179
 291  2375.679
 292  2250.888
 293  2143.36
 294  1939.773
 295  2108.85
 296  2004.041
 297  1865.28
 298  2247.018
 299  2150.718
 300  2260.185
 301  2531.287
 302  2397.245
 303  2067.023
 304  2011.516
 305  2033.02
 306  2270.163
 307  2046.813
 308  1957.126
 309  2373.306
 310  2427.031
 311  2617.932
 312  2447.679
 313  2238.915
 314  2440.907
 315  2511.409
 316  2248.159
 317  1928.402
 318  1880.137
 319  2165.205
 320  2172.352
 321  1961.316
 322  2225.559
 323  2008.481
 324  1848.307
 325  1840.769
 326  1963.402
 327  1556.526
 328  1307.108
 329  1776.259
 330  2119.483
 331  1785.726
 332  2122.267
 333  2293.868
 334  2346.316
 335  2357.683
 336  2324.656
 337  2245.539
 338  2138.329
 339  1908.812
 340  2129.091
 341  2072.352
 342  2051.559
 343  2147.386
 344  1997.645
 345  1963.472
 346  1997.856
 347  1701.577
 348  1761.073
 349  1956.77
 350  1942.859
 351  2019.051
 352  2147.451
 353  1961.415
 354  1970.803
 355  2071.196
 356  2162.947
 357  1919.578
 358  1714.338
 359  1569.196
 360  1965.882
 361  2132.419
 362  2099.37
 363  1952.962
 364  2102.181
 365  2056.678
 366  2081.419
 367  2278.429
 368  2557.301
 369  2274.938
 370  1853.23
 371  1858.066
 372  1988.878
 373  2123.216
 374  2083.646
 375  2119.187
 376  1876.823
 377  1790.115
 378  1558.639
 379  1715.599
 380  2063.552
 381  1983.669
 382  2087.412
 383  1913.661
 384  2200.859
 385  2164.003
 386  2119.943
 387  2061.954
 388  1700.621
 389  1396.27
 390  1700.241
 391  1853.436
 392  1826.119
 393  1689.729
 394  1833.52
 395  2154.897
 396  2260.728
 397  2131.533
 398  2046.688
 399  1673.393
 400  2075.927
 401  2038.065
 402  1724.189
 403  2081.623
 404  1994.614
 405  2121.101
 406  2021.377
 407  1850.822
 408  2035.452
 409  2041.745
 410  2004.066
 411  1871.282
 412  1749.568
 413  1860.871
 414  2180.171
 415  1832.17
 416  2022.605
 417  1901.603
 418  1795.294
 419  2079.052
 420  1804.873
 421  1829.991
 422  1827.324
 423  1817.129
 424  1924.334
 425  1748.415
 426  1445.822
 427  1804.751
 428  1939.658
 429  1892.407
 430  1966.017
 431  1746.457
 432  1538.051
 433  1654.488
 434  1701.422
 435  1477.798
 436  1210.218
 437  1513.942
 438  1202.769
 439  1367.009
 440  1414.356
 441  1527.909
 442  1431.197
 443  1639.655
 444  1820.229
 445  1686.032
 446  1499.636
 447  1519.236
 448  1693.703
 449  2014.661
 450  1887.381
 451  1406.229
 452  1410.875
 453  1783.219
 454  1882.647
 455  2029.214
 456  1699.853
 457  1748.561
 458  1750.012
 459  1558.577
 460  1810.935
 461  1967.143
 462  2127.915
 463  1791.116
 464  2107.785
 465  2152.414
 466  1969.823
 467  2151.81
 468  2040.306
 469  2128.304
 470  2228.319
 471  1995.82
 472  2215.262
 473  2079.586
 474  1919.967
 475  1803.266
 476  1898.458
 477  1916.566
 478  1646.719
 479  1811.164
 480  1929.805
 481  2100.134
 482  2297.827
 483  2255.782
 484  1873.309
 485  1852.855
 486  2031.05
 487  2398.314
 488  2225.202
 489  1820.005
 490  1918.859
 491  1896.862
 492  1733.732
 493  1980.681
 494  2081.458
 495  1920.69
 496  1728.924
 497  2001.636
 498  1895.522
 499  1750.182
 500  2012.887
 501  2091.726
 502  1945.7
 503  1955.583
 504  2129.329
 505  2020.817
 506  1953.492
 507  2071.593
 508  2046.571
 509  1981.89
 510  1962.187
 511  2037.343
