# Input file       =  1209201872.113502_cleaned.dat
# Candidate        =  PSR_0332+5434
# Telescope        =  AR
# Epoch_topo       =  58239.392258258122
# Epoch_bary       =  N/A
# T_sample         =  0.002
# Data Folded      =  7340032
# Data Avg         =  0.358633059919936
# Data StdDev      =  6.13226091538805 
# Profile Bins     =  1024
# Profile Avg      =  2565.37938741721 
# Profile StdDev   =  519.181995413698 
# Reduced chi-sqr  =  1.125
# Prob(Noise)      <  0.00312   (~2.7 sigma)
# P_topo (ms)      =  714.54638122993   +/- 0.00025
# P'_topo (s/s)    =  -0                +/- 1.32e-10
# P''_topo (s/s^2) =  0                 +/- 5.81e-14
# P_bary (ms)      =  N/A
# P'_bary (s/s)    =  N/A
# P''_bary (s/s^2) =  N/A
# P_orb (s)        =  N/A
# asin(i)/c (s)    =  N/A
# eccentricity     =  N/A
# w (rad)          =  N/A
# T_peri           =  N/A
######################################################
   0  2803.493
   1  2899.367
   2  3002.274
   3  3084.34
   4  2997.746
   5  2933.536
   6  2845.513
   7  2881.397
   8  2807.435
   9  2890.484
  10  2886.002
  11  2883.575
  12  2810.628
  13  2765.958
  14  2704.631
  15  2757.625
  16  2778.775
  17  2910.315
  18  3064.489
  19  3115.682
  20  3144.975
  21  3122.327
  22  3105.034
  23  3059.997
  24  2962.686
  25  3022.896
  26  3004.862
  27  2955.313
  28  2866.865
  29  2827.77
  30  2949.711
  31  2778.179
  32  2884.537
  33  3005.12
  34  2999.497
  35  2874.439
  36  2771.274
  37  2873.845
  38  2866.16
  39  2773.014
  40  2693.211
  41  2542.033
  42  2528.615
  43  2479.035
  44  2407.87
  45  2386.498
  46  2424.522
  47  2542.153
  48  2571.045
  49  2517.102
  50  2685.903
  51  2834.888
  52  2811.59
  53  2722.411
  54  2689.603
  55  2606.695
  56  2669.117
  57  2631.165
  58  2688.933
  59  2604.083
  60  2672.705
  61  2786.72
  62  2697.541
  63  2505.01
  64  2439.481
  65  2663.462
  66  2681.35
  67  2477.674
  68  2287.725
  69  2125.584
  70  2101.653
  71  2124.947
  72  2399.071
  73  2485.539
  74  2579.898
  75  2438.886
  76  2491.276
  77  2489.35
  78  2320.749
  79  2257.849
  80  2172.765
  81  2307.101
  82  2462.019
  83  2504.298
  84  2523.485
  85  2393.702
  86  2429.209
  87  2322.316
  88  2291.342
  89  2368.676
  90  2391.287
  91  2406.62
  92  2486.268
  93  2581.305
  94  2613.611
  95  2576.427
  96  2555.423
  97  2418.083
  98  2453.408
  99  2652.364
 100  2771.195
 101  2739.574
 102  2648.893
 103  2651.532
 104  2582.926
 105  2604.086
 106  2669.858
 107  2726.433
 108  2625.813
 109  2562.177
 110  2527.584
 111  2474.711
 112  2600.896
 113  2742.443
 114  2873.451
 115  3063.587
 116  2912.939
 117  2834.645
 118  2729.681
 119  2714.492
 120  2757.964
 121  2903.356
 122  2896.567
 123  2701.215
 124  2659.927
 125  2883.633
 126  2971.807
 127  2916.391
 128  2849.03
 129  2919.691
 130  2998.875
 131  3033.193
 132  3048.172
 133  3155.351
 134  3081.844
 135  3059.828
 136  2962.434
 137  3082.502
 138  3062.163
 139  3138.896
 140  3059.729
 141  3171.666
 142  3087.964
 143  3191.243
 144  3304.3
 145  3297.116
 146  3117.135
 147  3018.484
 148  3053.225
 149  3047.614
 150  2944.792
 151  2985.275
 152  3223.804
 153  3357.307
 154  3347.351
 155  3151.379
 156  3091.202
 157  3097.238
 158  3087.318
 159  3083.954
 160  3132.948
 161  3026.917
 162  2887.084
 163  2762.427
 164  2816.71
 165  2865.55
 166  2952.096
 167  3014.104
 168  3062.762
 169  3029.31
 170  2972.772
 171  2869.346
 172  2795.897
 173  2754.665
 174  2889.468
 175  2929.207
 176  2925.96
 177  2936.348
 178  2904.932
 179  2749.991
 180  2682.347
 181  2644.187
 182  2724.036
 183  2610.207
 184  2734.6
 185  2834.607
 186  2898.688
 187  2953.018
 188  2895.662
 189  2855.811
 190  2621.05
 191  2542.27
 192  2594.622
 193  2670.279
 194  2792.593
 195  2721.104
 196  2744.276
 197  2731.605
 198  2843.639
 199  2807.985
 200  2886.129
 201  2880.46
 202  2801.611
 203  2783.239
 204  2658.742
 205  2793.032
 206  2824.553
 207  2843.55
 208  2753.969
 209  2748.266
 210  2764.226
 211  2687.456
 212  2670.636
 213  2717.668
 214  2733.95
 215  2732.5
 216  2666.162
 217  2643.164
 218  2584.315
 219  2573.536
 220  2607.074
 221  2569.904
 222  2546.965
 223  2519.373
 224  2390.639
 225  2193.658
 226  2098.801
 227  2078.618
 228  2253.388
 229  2492.289
 230  2639.431
 231  2621.43
 232  2536.347
 233  2505.886
 234  2516.953
 235  2435.551
 236  2539.208
 237  2486.411
 238  2645.266
 239  2524.51
 240  2516.501
 241  2513.75
 242  2615.229
 243  2539.463
 244  2588.98
 245  2571.941
 246  2606.374
 247  2622.976
 248  2675.512
 249  2589.104
 250  2545.427
 251  2426.723
 252  2270.499
 253  2130.955
 254  2128.023
 255  2183.256
 256  2286.978
 257  2396.282
 258  2421.203
 259  2359.767
 260  2458.993
 261  2582.262
 262  2618.971
 263  2551.242
 264  2505.929
 265  2730.738
 266  2728.664
 267  2807.366
 268  2714.588
 269  2738.625
 270  2697.398
 271  2571.982
 272  2615.078
 273  2645.836
 274  2695.062
 275  2657.682
 276  2686.071
 277  2775.125
 278  2894.721
 279  2871.913
 280  2812.76
 281  2704.012
 282  2640.646
 283  2646.09
 284  2633.711
 285  2652.048
 286  2702.727
 287  2730.372
 288  2779.983
 289  2715.496
 290  2837.214
 291  2952.556
 292  3018.154
 293  2958.83
 294  2824.293
 295  2884.646
 296  2833.182
 297  2940.372
 298  2894.296
 299  2848.335
 300  2799.253
 301  2798.542
 302  2856.312
 303  2909.734
 304  2958.094
 305  2780.17
 306  2654.019
 307  2587.444
 308  2669.291
 309  2564.43
 310  2517.261
 311  2507.704
 312  2454.952
 313  2354.27
 314  2402.905
 315  2394.683
 316  2417.411
 317  2410.634
 318  2528.652
 319  2656.495
 320  2715.012
 321  2733.323
 322  2708.227
 323  2593.736
 324  2557.481
 325  2513.893
 326  2505.936
 327  2410.71
 328  2341.522
 329  2382.362
 330  2412.021
 331  2324.82
 332  2277.029
 333  2386.755
 334  2409.895
 335  2306.295
 336  2235.028
 337  2371.226
 338  2357.162
 339  2290.429
 340  2212.914
 341  2264.02
 342  2311.241
 343  2378.274
 344  2412.726
 345  2467.651
 346  2439.267
 347  2562.404
 348  2672.36
 349  2662.623
 350  2641.805
 351  2732.846
 352  2788.104
 353  2767.996
 354  2706.123
 355  2631.862
 356  2585.977
 357  2637.383
 358  2732.515
 359  2672.556
 360  2600.035
 361  2594.896
 362  2670.101
 363  2509.924
 364  2336.414
 365  2279.275
 366  2382.564
 367  2415.727
 368  2500.387
 369  2465.02
 370  2415.134
 371  2264.399
 372  2158.678
 373  2176.718
 374  2180.178
 375  2130.743
 376  2120.917
 377  2108.148
 378  2176.873
 379  2117.835
 380  2169.501
 381  2118.179
 382  2064.597
 383  1950.697
 384  2070.594
 385  2176.48
 386  2282.103
 387  2236.048
 388  2316.999
 389  2371.709
 390  2365.152
 391  2306.994
 392  2162.728
 393  2189.283
 394  2319.69
 395  2442.666
 396  2421.887
 397  2255.838
 398  2213.143
 399  2174.088
 400  2238.825
 401  2194.664
 402  2289.517
 403  2525.768
 404  2681.545
 405  2653.686
 406  2491.894
 407  2395.981
 408  2356.087
 409  2462.739
 410  2519.395
 411  2617.148
 412  2555.18
 413  2532.321
 414  2527.517
 415  2576.539
 416  2603.984
 417  2581.94
 418  2592.737
 419  2652.693
 420  2741.93
 421  2814.351
 422  2790.642
 423  2776.284
 424  2695.53
 425  2755.594
 426  2846.543
 427  2868.486
 428  2943.826
 429  2834.316
 430  2725.276
 431  2501.219
 432  2638.608
 433  2624.362
 434  2578.457
 435  2469.447
 436  2547.276
 437  2666.051
 438  2711.626
 439  2723.638
 440  2675.259
 441  2642.771
 442  2654.893
 443  2630.424
 444  2692.292
 445  2687.306
 446  2594.575
 447  2625.289
 448  2649.133
 449  2585.277
 450  2579.43
 451  2728.168
 452  2748.121
 453  2696.346
 454  2651.685
 455  2665.25
 456  2444.871
 457  2321.716
 458  2424.118
 459  2482.917
 460  2475.574
 461  2632.852
 462  2768.475
 463  2716.247
 464  2651.31
 465  2651.633
 466  2698.176
 467  2761.694
 468  2828.782
 469  2670.833
 470  2560.761
 471  2527.555
 472  2448.183
 473  2380.05
 474  2295.871
 475  2356.506
 476  2370.382
 477  2466.352
 478  2477.601
 479  2528.759
 480  2499.619
 481  2558.763
 482  2472.365
 483  2554.343
 484  2467.052
 485  2486.131
 486  2510.677
 487  2596.958
 488  2720.374
 489  2583.722
 490  2458.154
 491  2282.207
 492  2231.43
 493  2293.885
 494  2323.109
 495  2437.146
 496  2484.978
 497  2589.741
 498  2573.284
 499  2487.194
 500  2523.023
 501  2561.994
 502  2558.473
 503  2533.372
 504  2423.751
 505  2348.458
 506  2260.432
 507  2298.337
 508  2358.552
 509  2423.108
 510  2333.454
 511  2254.14
 512  2256.392
 513  2248.202
 514  2082.037
 515  2056.066
 516  2143.414
 517  2191.091
 518  2184.022
 519  2082.562
 520  1969.849
 521  1883.474
 522  1996.17
 523  2158.818
 524  2391.11
 525  2428.848
 526  2340.943
 527  2230.973
 528  2200.914
 529  2235.164
 530  2148.098
 531  2038.018
 532  2040.548
 533  2113.212
 534  2039.497
 535  2068.967
 536  2064.992
 537  2259.702
 538  2301.407
 539  2339.297
 540  2237.752
 541  2173.99
 542  2240.852
 543  2278.117
 544  2204.49
 545  2207.33
 546  2276.673
 547  2265.504
 548  2212.121
 549  2314.047
 550  2369.602
 551  2350.824
 552  2379.517
 553  2353.369
 554  2477.529
 555  2485.871
 556  2608.017
 557  2583.124
 558  2525.975
 559  2554.582
 560  2567.173
 561  2580.981
 562  2524.438
 563  2516.701
 564  2591.399
 565  2617.254
 566  2604.508
 567  2540.616
 568  2582.654
 569  2554.084
 570  2614.238
 571  2643.833
 572  2661.8
 573  2495.984
 574  2523.505
 575  2505.298
 576  2647.69
 577  2679.954
 578  2696.313
 579  2702.126
 580  2661.008
 581  2720.75
 582  2749.789
 583  2858.024
 584  2802.573
 585  2851.286
 586  2872.831
 587  2890.239
 588  2886.403
 589  2930.888
 590  2879.985
 591  2876.057
 592  2913.254
 593  3105.264
 594  3254.041
 595  3357.52
 596  3453.552
 597  3574.198
 598  3800.626
 599  3890.81
 600  3900.787
 601  3907.319
 602  3865.399
 603  3815.167
 604  3745.478
 605  3650.715
 606  3580.413
 607  3382.863
 608  3115.059
 609  2977.221
 610  3008.615
 611  3042.312
 612  2990.945
 613  2952.213
 614  2904.291
 615  2955.632
 616  2796.05
 617  2846.102
 618  2822.959
 619  2904.893
 620  2814.181
 621  2795.363
 622  2703.057
 623  2670.616
 624  2729.316
 625  2777.643
 626  2862.847
 627  2825.385
 628  2848.476
 629  2786.308
 630  2819.916
 631  2637.374
 632  2546.671
 633  2554.095
 634  2532.516
 635  2391.176
 636  2268.034
 637  2189.071
 638  2136.846
 639  2084.374
 640  2068.506
 641  2090.973
 642  2023.5
 643  2054.74
 644  2058.115
 645  2190.07
 646  2107.358
 647  2088.119
 648  2004.511
 649  1939.758
 650  1817.754
 651  1860.489
 652  1926.557
 653  2072.995
 654  2145.475
 655  2165.524
 656  2180.799
 657  2200.927
 658  2233.067
 659  2266.796
 660  2287.313
 661  2388.817
 662  2283.328
 663  2280.815
 664  2196.837
 665  2149.783
 666  2166.35
 667  2147.357
 668  2301.538
 669  2244.404
 670  2186.674
 671  2206.28
 672  2074.094
 673  2057.553
 674  1831.078
 675  1806.618
 676  1870.848
 677  1975.839
 678  1993.926
 679  2072.405
 680  2106.531
 681  2092.082
 682  2051.699
 683  2139.233
 684  2011.496
 685  2022.18
 686  2028.142
 687  2038.17
 688  1972.44
 689  1988.493
 690  2104.385
 691  2198.96
 692  2228.03
 693  2174.482
 694  2128.744
 695  2192.83
 696  2102.328
 697  1924.866
 698  1859.757
 699  1900.483
 700  1947.518
 701  2009.038
 702  2125.097
 703  2136.281
 704  2053.052
 705  2030.931
 706  1947.12
 707  2061.916
 708  2147.14
 709  2280.29
 710  2243.958
 711  2202.708
 712  2299.744
 713  2342.352
 714  2479.143
 715  2602.179
 716  2368.666
 717  2266.458
 718  2412.368
 719  2598.432
 720  2590.503
 721  2453.506
 722  2446.117
 723  2410.781
 724  2185.627
 725  2256.859
 726  2239.386
 727  2324.38
 728  2283.404
 729  2327.504
 730  2441.524
 731  2336.385
 732  2289.223
 733  2361.957
 734  2345.895
 735  2554.813
 736  2574.156
 737  2603.277
 738  2435.298
 739  2405.072
 740  2555.924
 741  2567.701
 742  2538.125
 743  2448.244
 744  2486.797
 745  2564.113
 746  2598.004
 747  2654.7
 748  2667.433
 749  2644.733
 750  2694.443
 751  2620.048
 752  2540.132
 753  2522.095
 754  2513.102
 755  2556.654
 756  2480.294
 757  2448.193
 758  2320.551
 759  2327.14
 760  2525.565
 761  2532.591
 762  2537.965
 763  2561.961
 764  2561.023
 765  2558.276
 766  2495.801
 767  2609.173
 768  2600.847
 769  2661.823
 770  2659.18
 771  2668.5
 772  2660.098
 773  2693.355
 774  2748.358
 775  2645.31
 776  2555.438
 777  2677.089
 778  2727.655
 779  2772.779
 780  2625.363
 781  2560.212
 782  2419.176
 783  2516.524
 784  2683.326
 785  2670.367
 786  2649.435
 787  2715.23
 788  2700.043
 789  2561.207
 790  2367.384
 791  2350.46
 792  2322.072
 793  2259.715
 794  2259.597
 795  2313.133
 796  2365.638
 797  2396.064
 798  2413.524
 799  2489.624
 800  2466.948
 801  2453.648
 802  2346.823
 803  2460.58
 804  2643.24
 805  2662.879
 806  2401.855
 807  2093.016
 808  2068.722
 809  2227.235
 810  2338.699
 811  2318.87
 812  2227.349
 813  2179.442
 814  2151.11
 815  2119.284
 816  2058.719
 817  2101.637
 818  2232.737
 819  2302.876
 820  2246.909
 821  2099.091
 822  2126.186
 823  2206.304
 824  2270.72
 825  2210.384
 826  2075.089
 827  1980.123
 828  2127.536
 829  2242.348
 830  2352.97
 831  2300.607
 832  2326.17
 833  2457.477
 834  2406.026
 835  2495.151
 836  2579.948
 837  2701.8
 838  2648.432
 839  2581.466
 840  2481.019
 841  2532.484
 842  2737.6
 843  2929.227
 844  2924.742
 845  2893.427
 846  2905.312
 847  2829.344
 848  2851.677
 849  2821.493
 850  2696.006
 851  2594.685
 852  2504.923
 853  2598.717
 854  2613.87
 855  2552.954
 856  2503.2
 857  2422.913
 858  2477.174
 859  2523.547
 860  2734.763
 861  2892.486
 862  2856.521
 863  2837.049
 864  2751.948
 865  2793.874
 866  2742.127
 867  2726.742
 868  2851.422
 869  2972.913
 870  2859.476
 871  2817.57
 872  2770.861
 873  2799.93
 874  2819.026
 875  2922.222
 876  2983.288
 877  3003.8
 878  2988.788
 879  2943.229
 880  2824.671
 881  2796.599
 882  2840.463
 883  2855.471
 884  2777.149
 885  2705.174
 886  2771.349
 887  2838.104
 888  2763.925
 889  2621.591
 890  2521.573
 891  2515.031
 892  2651.942
 893  2783.265
 894  2813.484
 895  2849.376
 896  2839.449
 897  2798.753
 898  2757.682
 899  2670.697
 900  2590.824
 901  2650.599
 902  2733.919
 903  2768.535
 904  2642.541
 905  2547.533
 906  2585.599
 907  2653.26
 908  2634.679
 909  2663.003
 910  2776.983
 911  2790.027
 912  2790.799
 913  2651.396
 914  2576.817
 915  2465.094
 916  2478.513
 917  2536.61
 918  2771.59
 919  2841.351
 920  2765.924
 921  2554.828
 922  2553.582
 923  2535.805
 924  2528.263
 925  2328.052
 926  2448.303
 927  2538.158
 928  2630
 929  2509.622
 930  2423.986
 931  2478.815
 932  2476.034
 933  2656.342
 934  2673.643
 935  2433.655
 936  2322.99
 937  2367.888
 938  2585.047
 939  2505.855
 940  2336.951
 941  2272.797
 942  2219.83
 943  2283.292
 944  2389.895
 945  2484.429
 946  2478.322
 947  2298.397
 948  2435.632
 949  2425.315
 950  2375.656
 951  2349.82
 952  2425.337
 953  2488.938
 954  2481.157
 955  2437.888
 956  2355.453
 957  2398.123
 958  2398.975
 959  2409.177
 960  2363.243
 961  2236.592
 962  2284.315
 963  2307.713
 964  2417.431
 965  2465.484
 966  2597.98
 967  2602.588
 968  2552.934
 969  2536.643
 970  2437.891
 971  2399.724
 972  2444.914
 973  2505.983
 974  2426.535
 975  2283.702
 976  2152.127
 977  2136.295
 978  2152.948
 979  2201.779
 980  2332.097
 981  2371.707
 982  2514.492
 983  2492.273
 984  2436.094
 985  2248.777
 986  2237.521
 987  2272.182
 988  2302.305
 989  2156.585
 990  2034.15
 991  2122.803
 992  2293.142
 993  2345.532
 994  2357.877
 995  2479.613
 996  2539.456
 997  2579.775
 998  2513.913
 999  2471.626
1000  2491.098
1001  2617.875
1002  2701.416
1003  2731.831
1004  2649.978
1005  2435.173
1006  2432.025
1007  2549.448
1008  2728.934
1009  2876.727
1010  3002.975
1011  2973.448
1012  2936.743
1013  2929.614
1014  2937.05
1015  2885.133
1016  2962.352
1017  2924.578
1018  2888.63
1019  2835.476
1020  2848.218
1021  2883.29
1022  2871.618
1023  2866.239
