# Input file       =  1209460304.110143_cleaned.dat
# Candidate        =  PSR_0332+5434
# Telescope        =  AR
# Epoch_topo       =  58242.383369330360
# Epoch_bary       =  N/A
# T_sample         =  0.002
# Data Folded      =  7340032
# Data Avg         =  0.0797127881564425
# Data StdDev      =  1.00014513442998 
# Profile Bins     =  512
# Profile Avg      =  1142.39412234783 
# Profile StdDev   =  119.75041376275  
# Reduced chi-sqr  =  0.675
# Prob(Noise)      <  1   (~0.0 sigma)
# P_topo (ms)      =  714.543659933069  +/- 0.00084
# P'_topo (s/s)    =  -0                +/- 4.43e-10
# P''_topo (s/s^2) =  0                 +/- 1.96e-13
# P_bary (ms)      =  N/A
# P'_bary (s/s)    =  N/A
# P''_bary (s/s^2) =  N/A
# P_orb (s)        =  N/A
# asin(i)/c (s)    =  N/A
# eccentricity     =  N/A
# w (rad)          =  N/A
# T_peri           =  N/A
######################################################
   0  1520.214
   1  1434.394
   2  1342.401
   3  1134.888
   4  1094.071
   5  1077.968
   6  1139.93
   7  1112.483
   8  1027.618
   9  1104.544
  10  1110.361
  11  1112.355
  12  1164.562
  13  1175.814
  14  1187.992
  15  1252.594
  16  1247.088
  17  1153.977
  18  1180.414
  19  1159.06
  20  1216.42
  21  1231.167
  22  1233.156
  23  1234.627
  24  1177.545
  25  1169.982
  26  1227.769
  27  1234.262
  28  1207.677
  29  1193.442
  30  1254.897
  31  1239.373
  32  1181.283
  33  1258.495
  34  1253.026
  35  1201.457
  36  1251.072
  37  1214.056
  38  1231.801
  39  1298.252
  40  1234.419
  41  1239.181
  42  1224.501
  43  1195.279
  44  1237.848
  45  1151.608
  46  1126.171
  47  1168.404
  48  1145.085
  49  1202.249
  50  1240.108
  51  1205.301
  52  1157.945
  53  1148.198
  54  1161.541
  55  1117.586
  56  1251.833
  57  1269.393
  58  1207.927
  59  1194.998
  60  1248.122
  61  1283.711
  62  1311.871
  63  1205.915
  64  1155.033
  65  1226.075
  66  1204.416
  67  1199.781
  68  1189.373
  69  1196.689
  70  1130.332
  71  1094.196
  72  1185.376
  73  1193.958
  74  1225.643
  75  1195.353
  76  1152.396
  77  1203.68
  78  1228.867
  79  1210.868
  80  1201.177
  81  1150.226
  82  1148.115
  83  1166.589
  84  1075.403
  85  1147.742
  86  1221.113
  87  1194.747
  88  1159.603
  89  1087.557
  90  1035.92
  91  1021.171
  92  1123.519
  93  1163.57
  94  1133.957
  95  1126.456
  96  1136.314
  97  1096.897
  98  982.8417
  99  1022.763
 100  1087.419
 101  1068.742
 102  1066.739
 103  1127.261
 104  1125.179
 105  1119.886
 106  1161.87
 107  1167.395
 108  1128.187
 109  1136.913
 110  1065.217
 111  1121.726
 112  1167.797
 113  1138.824
 114  1100.73
 115  1157.894
 116  1068.897
 117  1092.571
 118  1070.968
 119  1072.34
 120  1105.723
 121  1148.129
 122  1121.798
 123  1116.618
 124  1082.297
 125  1075.186
 126  1089.886
 127  1178.681
 128  1080.717
 129  1094.613
 130  1060.555
 131  1068.76
 132  1139.771
 133  1072.812
 134  1131.266
 135  1192.756
 136  1181.032
 137  1180.233
 138  1123.63
 139  1125.885
 140  1108.393
 141  1138.416
 142  1097.953
 143  1120.675
 144  1162.354
 145  1046.771
 146  1104.164
 147  1165.199
 148  1052.815
 149  1022.507
 150  1103.733
 151  1098.812
 152  1094.438
 153  1138.855
 154  1093.328
 155  1061.344
 156  1126.345
 157  1073.937
 158  1126.706
 159  1124.911
 160  1118.283
 161  1195.487
 162  1194.492
 163  1219.953
 164  1180.078
 165  1158.298
 166  1148.065
 167  1185.419
 168  1192.562
 169  1177.859
 170  1186.808
 171  1202.598
 172  1176.678
 173  1082.884
 174  1146.319
 175  1194.169
 176  1167.847
 177  1168.537
 178  1205.634
 179  1137.476
 180  1118.155
 181  1099.493
 182  1087.578
 183  1049.278
 184  1088.406
 185  1080.263
 186  1032.16
 187  979.7588
 188  988.9725
 189  984.371
 190  1030.563
 191  1037.044
 192  1093.661
 193  1109.813
 194  1101.529
 195  1157.336
 196  1197.421
 197  1145.218
 198  1101.137
 199  1081.32
 200  1097.677
 201  1082.938
 202  1080.542
 203  1049.745
 204  1099.549
 205  1065.617
 206  1096.1
 207  1119.426
 208  1089.122
 209  1103.704
 210  1096.506
 211  1069.543
 212  1041.703
 213  1017.817
 214  998.9547
 215  955.359
 216  1004.427
 217  989.7074
 218  983.5827
 219  1062.279
 220  1035.355
 221  1012.504
 222  1094.502
 223  1077.952
 224  1069.076
 225  1043.865
 226  1102.614
 227  1106.128
 228  1133.086
 229  1117.382
 230  1115.397
 231  1074.531
 232  1009.969
 233  1072.797
 234  1080.408
 235  1043.943
 236  1050.498
 237  1070.918
 238  1078.02
 239  1126.363
 240  1068.114
 241  1077.81
 242  1132.308
 243  1114.988
 244  1135.629
 245  1139.161
 246  1021.972
 247  988.704
 248  1009.582
 249  1071.631
 250  1076.963
 251  1016.508
 252  1127.263
 253  1067.202
 254  1054.247
 255  1073.98
 256  1124.173
 257  1111.126
 258  1131.12
 259  1123.61
 260  1076.763
 261  1125.555
 262  1148.754
 263  1170.713
 264  1151.989
 265  1054.792
 266  1103.912
 267  1159.563
 268  1193.957
 269  1112.038
 270  1171.512
 271  1156.417
 272  1216.914
 273  1213.786
 274  1215.671
 275  1167.294
 276  1242.952
 277  1234.97
 278  1170.059
 279  1224.823
 280  1242.889
 281  1229.312
 282  1200.863
 283  1189.555
 284  1220.655
 285  1234.543
 286  1349.527
 287  1385.334
 288  1263.979
 289  1205.209
 290  1274.134
 291  1198.453
 292  1198.146
 293  1205.337
 294  1269.544
 295  1237.313
 296  1162.996
 297  1130.639
 298  1086.063
 299  1102.722
 300  1150.123
 301  1191.696
 302  1117.144
 303  1077.316
 304  1103.319
 305  1103.748
 306  1093.458
 307  1071.718
 308  1159.527
 309  1139.911
 310  1140.207
 311  1157.633
 312  1148.626
 313  1119.912
 314  1091.758
 315  1141.457
 316  1164.741
 317  1104.01
 318  1125.051
 319  1142.458
 320  1105.994
 321  1095.768
 322  1177.627
 323  1198.097
 324  1156.09
 325  1143.581
 326  1157.419
 327  1160.621
 328  1144.262
 329  1130.932
 330  1129.228
 331  1171.63
 332  1126.887
 333  1150.211
 334  1082.203
 335  1034.92
 336  1111.979
 337  1176.704
 338  1261.034
 339  1196.25
 340  1188.023
 341  1109.301
 342  1093.063
 343  1110.891
 344  1119.641
 345  1184.09
 346  1195.318
 347  1168.494
 348  1171.122
 349  1137.367
 350  1077.693
 351  1077.339
 352  1068.715
 353  1135.501
 354  1127.31
 355  1157.335
 356  1116.305
 357  1062.682
 358  1129.493
 359  1115.661
 360  1121.159
 361  1192.704
 362  1216.954
 363  1225.803
 364  1171.363
 365  1049.845
 366  1032.204
 367  1100.482
 368  1191.352
 369  1208.931
 370  1178.756
 371  1138.759
 372  1159.061
 373  1171.639
 374  1156.917
 375  1240.228
 376  1272.536
 377  1180.458
 378  1215.385
 379  1241.501
 380  1234.578
 381  1177.44
 382  1147.85
 383  1114.113
 384  1136.438
 385  1076.782
 386  1097.45
 387  1211.452
 388  1131.176
 389  1058.927
 390  1083.208
 391  1060.4
 392  1121.512
 393  1108.49
 394  1158.084
 395  1145.263
 396  1154.74
 397  1117.447
 398  1042.709
 399  1043.936
 400  1101.368
 401  1093.441
 402  1149.371
 403  1172.12
 404  1144.618
 405  1142.601
 406  1154.753
 407  1143.098
 408  1147.982
 409  1200.271
 410  1150.351
 411  1157.418
 412  1209.345
 413  1125.03
 414  1054.277
 415  1046.292
 416  1138.624
 417  1130.054
 418  1122.159
 419  1118.872
 420  1082.783
 421  1084.527
 422  1155.071
 423  1156.964
 424  1200.287
 425  1182.908
 426  1128.278
 427  1141.448
 428  1105.667
 429  1139.604
 430  1148.728
 431  1131.73
 432  1077.273
 433  1164.112
 434  1201.713
 435  1124.629
 436  1185.891
 437  1106.386
 438  1140.62
 439  1194.891
 440  1267.607
 441  1284.963
 442  1177.162
 443  1077.035
 444  1041.554
 445  1113.528
 446  1137.574
 447  1151.378
 448  1133.639
 449  1046.423
 450  1135.105
 451  1144.893
 452  1175.069
 453  1192.499
 454  1208.623
 455  1168.024
 456  1087.431
 457  1169.388
 458  1146.87
 459  1082.57
 460  1110.678
 461  1196.557
 462  1194.115
 463  1234.739
 464  1291.876
 465  1212.342
 466  1204.315
 467  1106.419
 468  1132.211
 469  1181.068
 470  1213.274
 471  1120.324
 472  1129.041
 473  1185.521
 474  1208.029
 475  1212.374
 476  1146.889
 477  1133.103
 478  1149.469
 479  1119.639
 480  1024.908
 481  1093.603
 482  1118.082
 483  1076.365
 484  1039.109
 485  1022.604
 486  1083.035
 487  1101.386
 488  1054.065
 489  1108.394
 490  1156.657
 491  1128.767
 492  1176.466
 493  1073.367
 494  1056.203
 495  1148.436
 496  1182.516
 497  1128.369
 498  1085.679
 499  1088.941
 500  1162.922
 501  1124.958
 502  1137.617
 503  1148.824
 504  1120.799
 505  1214.038
 506  1251.103
 507  1211.862
 508  1220.041
 509  1328.694
 510  1439.611
 511  1504.65
