# Input file       =  1209130620.106693_cleaned.dat
# Candidate        =  PSR_0332+5434
# Telescope        =  AR
# Epoch_topo       =  58238.567582253389
# Epoch_bary       =  N/A
# T_sample         =  0.002
# Data Folded      =  7340032
# Data Avg         =  0.258969148051359
# Data StdDev      =  5.81458080311327 
# Profile Bins     =  1024
# Profile Avg      =  1856.26450491287 
# Profile StdDev   =  492.285913060094 
# Reduced chi-sqr  =  0.901
# Prob(Noise)      <  0.99   (~0.0 sigma)
# P_topo (ms)      =  714.547455587971  +/- 0.000187
# P'_topo (s/s)    =  -0                +/- 9.87e-11
# P''_topo (s/s^2) =  0                 +/- 4.36e-14
# P_bary (ms)      =  N/A
# P'_bary (s/s)    =  N/A
# P''_bary (s/s^2) =  N/A
# P_orb (s)        =  N/A
# asin(i)/c (s)    =  N/A
# eccentricity     =  N/A
# w (rad)          =  N/A
# T_peri           =  N/A
######################################################
   0  2280.072
   1  2203.037
   2  2217.822
   3  2198.395
   4  2222.876
   5  2083.811
   6  2144.934
   7  2123.086
   8  2052.851
   9  2069.06
  10  2202.584
  11  2286.857
  12  2134.74
  13  1998.09
  14  2005.489
  15  1988.674
  16  1814.657
  17  1743.075
  18  1795.392
  19  1962.497
  20  2025.117
  21  1899.285
  22  1837.725
  23  1774.572
  24  1864.362
  25  1862.438
  26  1912.165
  27  1845.869
  28  1925.356
  29  1885.344
  30  1957.495
  31  1911.041
  32  1731.239
  33  1617.207
  34  1646.592
  35  1784.234
  36  1792.737
  37  1744.013
  38  1711.536
  39  1701.598
  40  1707.174
  41  1775.307
  42  1715.169
  43  1747.659
  44  1808.07
  45  1911.26
  46  1932.155
  47  1905.922
  48  1823.137
  49  1785.349
  50  1792.533
  51  1736.711
  52  1817.299
  53  1912.697
  54  2092.999
  55  2068.391
  56  2026.32
  57  1995.268
  58  1942.848
  59  1803.31
  60  1742.495
  61  1806.763
  62  1810.864
  63  1805.071
  64  1784.066
  65  1786.499
  66  1836.977
  67  1981.82
  68  2088.448
  69  1954.772
  70  2030.023
  71  2060.958
  72  2216.777
  73  2187.622
  74  2087.745
  75  2150.355
  76  2121.467
  77  2159.477
  78  2070.514
  79  2101.427
  80  2076.475
  81  2050.048
  82  2037.188
  83  2111.142
  84  2042.12
  85  1958.81
  86  1937.323
  87  1859.381
  88  1962.518
  89  2012.969
  90  2037.689
  91  2008.451
  92  2128.719
  93  2118.661
  94  1949.263
  95  1895.017
  96  1883.345
  97  1944.797
  98  1932.253
  99  1960.412
 100  1988.239
 101  2062.327
 102  1911.867
 103  1842.571
 104  1872.949
 105  2011.027
 106  1976.537
 107  1960.582
 108  1875.112
 109  1950.801
 110  1941.029
 111  1927.399
 112  2025.438
 113  2050.747
 114  1975.901
 115  1913.329
 116  1806.593
 117  1731.78
 118  1689.56
 119  1652.78
 120  1640.829
 121  1777.901
 122  1866.083
 123  1759.593
 124  1727.483
 125  1799.581
 126  1881.212
 127  1836.806
 128  1746.915
 129  1786.08
 130  1774.531
 131  1829.436
 132  1713.743
 133  1786.715
 134  1823.538
 135  1862.911
 136  1897.601
 137  1897.163
 138  1767.322
 139  1715.359
 140  1828.96
 141  2010.411
 142  2057.244
 143  2026.988
 144  1954.059
 145  1886.177
 146  1830.176
 147  1904.284
 148  1953.576
 149  1945.853
 150  1920.51
 151  1847.228
 152  1865.489
 153  1811.07
 154  1713.071
 155  1681.311
 156  1821.168
 157  2098.797
 158  2279.655
 159  2378.812
 160  2380.074
 161  2332.95
 162  2121.721
 163  1873.331
 164  1737.205
 165  1650.584
 166  1668.212
 167  1522.724
 168  1542.139
 169  1585.798
 170  1686.618
 171  1757.349
 172  1833.846
 173  1861.117
 174  1859.986
 175  1676.308
 176  1559.938
 177  1455.237
 178  1361.299
 179  1560.617
 180  1579.92
 181  1539.236
 182  1409.56
 183  1357.19
 184  1479.548
 185  1369.761
 186  1311.264
 187  1172.841
 188  1232.951
 189  1351.752
 190  1510.037
 191  1614.953
 192  1659.034
 193  1645.173
 194  1635.753
 195  1664.201
 196  1723.634
 197  1855.103
 198  1935.918
 199  1929.811
 200  1979.588
 201  1999.22
 202  2115.523
 203  2126.732
 204  2204.285
 205  2259.809
 206  2353.531
 207  2316.479
 208  2309.465
 209  2193.759
 210  2237.745
 211  2205.565
 212  2300.03
 213  2264.029
 214  2125.549
 215  2109.906
 216  2030.84
 217  2049.14
 218  2050.723
 219  2056.683
 220  2134.18
 221  2055.371
 222  2188.746
 223  2166.156
 224  2272.822
 225  2223.202
 226  2169.218
 227  2078.548
 228  2134.215
 229  2009.912
 230  1987.884
 231  1926.216
 232  1939.117
 233  1849.385
 234  1852.157
 235  1818.597
 236  1896.968
 237  1929.167
 238  1896.428
 239  1707.25
 240  1699.209
 241  1725.776
 242  1852.692
 243  1864.319
 244  1972.89
 245  1928.145
 246  1931.934
 247  1990.667
 248  1893.778
 249  1825.93
 250  1667.011
 251  1411.943
 252  1468.935
 253  1507.378
 254  1615
 255  1537.422
 256  1667.78
 257  1828.704
 258  1827.485
 259  1762.48
 260  1790.123
 261  1924.021
 262  1978.783
 263  1781.981
 264  1630.987
 265  1528.908
 266  1638.826
 267  1660.4
 268  1680.383
 269  1617.76
 270  1667.003
 271  1725.734
 272  1728.767
 273  1777.607
 274  1894.668
 275  1951.96
 276  1956.315
 277  1959.552
 278  1825.806
 279  1766.183
 280  1843.21
 281  1863.061
 282  1970.055
 283  1916.723
 284  1867.225
 285  1781.689
 286  1699.534
 287  1675.491
 288  1680.93
 289  1716.049
 290  1746.764
 291  1778.504
 292  1834.357
 293  1973.621
 294  2026.839
 295  2015.153
 296  1962.226
 297  1897.929
 298  2049.384
 299  2091.451
 300  1946.261
 301  1682.271
 302  1587.905
 303  1620.822
 304  1599.508
 305  1710.678
 306  1695.038
 307  1800.211
 308  1703.643
 309  1911.343
 310  1932.6
 311  1963.608
 312  1953.489
 313  1888.157
 314  1791.317
 315  1585.429
 316  1493.52
 317  1658.491
 318  1591.089
 319  1521.973
 320  1321.109
 321  1407.986
 322  1426.083
 323  1410.883
 324  1437.093
 325  1344.997
 326  1436.632
 327  1408.185
 328  1394.283
 329  1429.74
 330  1527.568
 331  1650.631
 332  1609.619
 333  1665.7
 334  1716.67
 335  1804.684
 336  1752.574
 337  1738.281
 338  1864.248
 339  1865.807
 340  2071.985
 341  2147.323
 342  2229.321
 343  2033.471
 344  1894.658
 345  1807.081
 346  1790.459
 347  1755.258
 348  1783.902
 349  1887.041
 350  2044.214
 351  2049.977
 352  2004.02
 353  2069.47
 354  2197.25
 355  2107.396
 356  2121.648
 357  2053.624
 358  2245.186
 359  2263.923
 360  2254.95
 361  2179.753
 362  2159.616
 363  2196.665
 364  2186.025
 365  2242.444
 366  2094.246
 367  1941.747
 368  1934.653
 369  2089.729
 370  2173.976
 371  2171.661
 372  2173.046
 373  2082.761
 374  2031.207
 375  1949.158
 376  1980.231
 377  1990.052
 378  1907.332
 379  1757.884
 380  1706.98
 381  1695.662
 382  1723.319
 383  1676.277
 384  1794.724
 385  1724.386
 386  1738.987
 387  1658.566
 388  1686.55
 389  1745.232
 390  1758.001
 391  1809.043
 392  1806.439
 393  1766.449
 394  1719.603
 395  1781.479
 396  1855.664
 397  1782.46
 398  1722.65
 399  1585.556
 400  1589.807
 401  1592.839
 402  1555.421
 403  1471.511
 404  1341.268
 405  1455.443
 406  1645.466
 407  1645.21
 408  1564.396
 409  1527.427
 410  1684.652
 411  1728.686
 412  1631.719
 413  1652.062
 414  1605.345
 415  1564.495
 416  1526.319
 417  1632.525
 418  1717.244
 419  1761.487
 420  1834.928
 421  1806.32
 422  1706.989
 423  1596.055
 424  1568.599
 425  1579.46
 426  1744.437
 427  1797.627
 428  1753.873
 429  1586.207
 430  1567.24
 431  1550.183
 432  1516.086
 433  1476.385
 434  1641.364
 435  1818.052
 436  1788.9
 437  1538.557
 438  1409.461
 439  1461.482
 440  1529.516
 441  1482.572
 442  1483.232
 443  1500.59
 444  1742.382
 445  1813.32
 446  1865.818
 447  1774.363
 448  1765.151
 449  1604.387
 450  1590.15
 451  1553.251
 452  1635.28
 453  1700.363
 454  1632.199
 455  1566.909
 456  1564.326
 457  1662.705
 458  1777.544
 459  1851.751
 460  1890.534
 461  1884.975
 462  1914.612
 463  1818.119
 464  1710.786
 465  1516.812
 466  1519.796
 467  1309.856
 468  1305.995
 469  1262.522
 470  1438.714
 471  1512.867
 472  1439.912
 473  1399.099
 474  1320.468
 475  1340.647
 476  1234.977
 477  1383.292
 478  1392.403
 479  1371.649
 480  1255.381
 481  1327.35
 482  1393.858
 483  1327.899
 484  1216.915
 485  1160.59
 486  1239.021
 487  1325.727
 488  1527.873
 489  1524.631
 490  1570.201
 491  1561.156
 492  1554.241
 493  1533.601
 494  1571.827
 495  1621.066
 496  1617.67
 497  1583.773
 498  1570.995
 499  1623.605
 500  1677.947
 501  1752.239
 502  1947.344
 503  1968.589
 504  1843.625
 505  1733.66
 506  1651.186
 507  1619.934
 508  1673.493
 509  1660.986
 510  1712.088
 511  1712.892
 512  1811.5
 513  1706.014
 514  1692.957
 515  1732.692
 516  1845.182
 517  1830.27
 518  1770.305
 519  1624.89
 520  1592.742
 521  1515.887
 522  1488.563
 523  1570.062
 524  1677.104
 525  1725.077
 526  1685.2
 527  1684.064
 528  1818.569
 529  1970.687
 530  1968.745
 531  1918.19
 532  1881.156
 533  1810.363
 534  1690.416
 535  1566.831
 536  1546.102
 537  1593.224
 538  1642.281
 539  1628.052
 540  1595.949
 541  1731.931
 542  1775.792
 543  1875.808
 544  1803.173
 545  1845.448
 546  1819.837
 547  1837.158
 548  1723.781
 549  1537.682
 550  1427.773
 551  1357.726
 552  1444.723
 553  1591.909
 554  1693.418
 555  1663.469
 556  1597.444
 557  1647.784
 558  1659.934
 559  1711.185
 560  1728.304
 561  1738.342
 562  1746.234
 563  1602.021
 564  1545.645
 565  1604.45
 566  1679.293
 567  1754.32
 568  1878.249
 569  2056.525
 570  2022.513
 571  1890.201
 572  1857.955
 573  1948.857
 574  1996.201
 575  2031.989
 576  1983.664
 577  2006.049
 578  2193.203
 579  2276.098
 580  2200.831
 581  2067.377
 582  2083.099
 583  2095.959
 584  2160.878
 585  2236.49
 586  2286.853
 587  2219.98
 588  2217.762
 589  2303.71
 590  2385.271
 591  2332.794
 592  2266.685
 593  2346.956
 594  2242.253
 595  2336.926
 596  2487.874
 597  2793.186
 598  2804.367
 599  2678.165
 600  2696.077
 601  2822.879
 602  2897.494
 603  2895.101
 604  2933.464
 605  2839.562
 606  2666.81
 607  2210.051
 608  2010.074
 609  1800.433
 610  1817.26
 611  1621.814
 612  1663.17
 613  1642.65
 614  1730.421
 615  1699.394
 616  1559.039
 617  1516.556
 618  1441.242
 619  1435.335
 620  1490.968
 621  1484.932
 622  1522.086
 623  1457.533
 624  1419.427
 625  1604.484
 626  1678.283
 627  1799.28
 628  1725.707
 629  1769.192
 630  1829.223
 631  1757.989
 632  1773.835
 633  1796.717
 634  1793.906
 635  1775.026
 636  1612.868
 637  1630.073
 638  1618.755
 639  1770.558
 640  1902.186
 641  1894.241
 642  1809.653
 643  1799.099
 644  1909.152
 645  1991.647
 646  1997.406
 647  2001.457
 648  1951.088
 649  1780.976
 650  1610.75
 651  1689.286
 652  1698.743
 653  1792.797
 654  2005.301
 655  2134.861
 656  2145.466
 657  2015.299
 658  2045.077
 659  2168.178
 660  2263.54
 661  2256.286
 662  2168.904
 663  1970.999
 664  1885.609
 665  1935.369
 666  2072.528
 667  2076.21
 668  2066.708
 669  2106.718
 670  2119.568
 671  2084.266
 672  2018.412
 673  1999.362
 674  1869.002
 675  1777.441
 676  1775.173
 677  1777.686
 678  1873.966
 679  1873.109
 680  1921.701
 681  1781.305
 682  1741.897
 683  1660.719
 684  1762.341
 685  1808.382
 686  1764.939
 687  1724.354
 688  1746.565
 689  1759.32
 690  1658.334
 691  1594.097
 692  1705.783
 693  1749.729
 694  1839.569
 695  1802.675
 696  1915.089
 697  1910.291
 698  1949.569
 699  1954.664
 700  1989.064
 701  1902.96
 702  1851.569
 703  1823.384
 704  1808.397
 705  1747.603
 706  1724.237
 707  1639.23
 708  1740.601
 709  1821.874
 710  1887.891
 711  1899.806
 712  1887.986
 713  1824.698
 714  1737.603
 715  1700.178
 716  1789.052
 717  2052.693
 718  2175.42
 719  2147.217
 720  2056.255
 721  1951.688
 722  1817.138
 723  1721.447
 724  1742.037
 725  1842.109
 726  1846.464
 727  1821.468
 728  1854.521
 729  2035.146
 730  2033.977
 731  1980.826
 732  1881.607
 733  1970.833
 734  2044.478
 735  2117.702
 736  2043.422
 737  2099.064
 738  2019.472
 739  1961.27
 740  1858.439
 741  1837.684
 742  2078.689
 743  2210.706
 744  2262.667
 745  2198.356
 746  2013.096
 747  1867.416
 748  1821.462
 749  1888.292
 750  1954.119
 751  1994.445
 752  1951.314
 753  2101.028
 754  2109.518
 755  2171.296
 756  2070.898
 757  2008.016
 758  2081.207
 759  1961.229
 760  1769.965
 761  1679.908
 762  1851.107
 763  1985.603
 764  1938.052
 765  1878.993
 766  1770.585
 767  1878.363
 768  1745.054
 769  1774.564
 770  1684.841
 771  1615.858
 772  1444.196
 773  1443.494
 774  1476.268
 775  1650.043
 776  1722.515
 777  1728.493
 778  1635.787
 779  1573.835
 780  1663.924
 781  1763.436
 782  1790.139
 783  1835.942
 784  1982.728
 785  2028.067
 786  1940.039
 787  1903.709
 788  1905.156
 789  1920.981
 790  1866.279
 791  1883.18
 792  1804.09
 793  1795.38
 794  1791.649
 795  1823.093
 796  1839.646
 797  1886.123
 798  1733.235
 799  1690.881
 800  1697.87
 801  1727.32
 802  1681.094
 803  1637.42
 804  1740.773
 805  1796.848
 806  1702.388
 807  1645.822
 808  1725.093
 809  1883.575
 810  1988.541
 811  2001.085
 812  1976.18
 813  1731.029
 814  1645.05
 815  1636.607
 816  1624.155
 817  1542.281
 818  1521.082
 819  1621.985
 820  1837.54
 821  1937.852
 822  1809.716
 823  1564.701
 824  1455.857
 825  1584.223
 826  1590.58
 827  1688.689
 828  1724.915
 829  1743.578
 830  1737.744
 831  1652.817
 832  1740.191
 833  1585.913
 834  1559.592
 835  1558.076
 836  1672.644
 837  1696.538
 838  1731.766
 839  1779.015
 840  1784.449
 841  1646.911
 842  1652.658
 843  1732.05
 844  1727.957
 845  1482.398
 846  1441.635
 847  1522.629
 848  1739.034
 849  1651.844
 850  1541.772
 851  1498.002
 852  1727.614
 853  1861.949
 854  1709.067
 855  1573.754
 856  1486.662
 857  1514.103
 858  1506.612
 859  1620.589
 860  1953.714
 861  1991.697
 862  1994.457
 863  1775.309
 864  1817.393
 865  1807.084
 866  1784.72
 867  1716.949
 868  1695.336
 869  1786.453
 870  1830.154
 871  2066.862
 872  2176.474
 873  2351.23
 874  2316.414
 875  2397.096
 876  2405.213
 877  2356.695
 878  2240.014
 879  2239.58
 880  2192.883
 881  2189.029
 882  2205.228
 883  2190.874
 884  2178.852
 885  2314.123
 886  2499.965
 887  2539.239
 888  2437.704
 889  2335.201
 890  2369.998
 891  2496.945
 892  2611.651
 893  2640.651
 894  2429.367
 895  2450.805
 896  2409.219
 897  2410.142
 898  2299.974
 899  2341.826
 900  2402.124
 901  2192.627
 902  2001.981
 903  2025.496
 904  2086.647
 905  2096.837
 906  1916.554
 907  1831.693
 908  1773.163
 909  1934.974
 910  1947.05
 911  1933.12
 912  1840.864
 913  1851.804
 914  1869.533
 915  1758.357
 916  1770.423
 917  1795.939
 918  1918.936
 919  1957.249
 920  1945.357
 921  1779.271
 922  1660.879
 923  1500.262
 924  1627.08
 925  1867.342
 926  1936.039
 927  1940.939
 928  1933.874
 929  1927.673
 930  1896.207
 931  1799.765
 932  1701.637
 933  1816.227
 934  1900.203
 935  2046.04
 936  2076.151
 937  2047.78
 938  2015.219
 939  1999.815
 940  2077.576
 941  2067.933
 942  2031.432
 943  2105.201
 944  2193.785
 945  2334.371
 946  2309.433
 947  2180.187
 948  2133.107
 949  2168.931
 950  2259.531
 951  2218.88
 952  2239.667
 953  2243.682
 954  2258.084
 955  2245.253
 956  2285.59
 957  2358.195
 958  2424.533
 959  2224.6
 960  2189.395
 961  2163.763
 962  2184.301
 963  2181.563
 964  2137.268
 965  2175.469
 966  2098.78
 967  2154.496
 968  1994.35
 969  1903.347
 970  1738.909
 971  1709.025
 972  1764.557
 973  1861.388
 974  2072.268
 975  1983.797
 976  1921.316
 977  1817.524
 978  1817.397
 979  1707.16
 980  1689.18
 981  1776.254
 982  1827.245
 983  1917.092
 984  1884.913
 985  1931.969
 986  1930.159
 987  2023.267
 988  2090.173
 989  1957.641
 990  1861.86
 991  1786.462
 992  1793.629
 993  1638.232
 994  1728.956
 995  1725.715
 996  1713.684
 997  1561.486
 998  1620.233
 999  1617.923
1000  1675.087
1001  1602.219
1002  1724.051
1003  1779.615
1004  1843.452
1005  1911.872
1006  1891.405
1007  1980.865
1008  1994.264
1009  2136.463
1010  2131.138
1011  2043.701
1012  1834.889
1013  1794.361
1014  1809.603
1015  1946.923
1016  2159.944
1017  2228.944
1018  2275.516
1019  2133.23
1020  2171.54
1021  2171.767
1022  2231.824
1023  2334.093
