# Input file       =  1209891182.120269_cleaned.dat
# Candidate        =  PSR_0332+5434
# Telescope        =  AR
# Epoch_topo       =  58247.370383336449
# Epoch_bary       =  N/A
# T_sample         =  0.002
# Data Folded      =  7340032
# Data Avg         =  0.315168839812809
# Data StdDev      =  4.22253336127032 
# Profile Bins     =  512
# Profile Avg      =  4521.27603484439 
# Profile StdDev   =  505.576740547088 
# Reduced chi-sqr  =  1.227
# Prob(Noise)      <  0.000333   (~3.4 sigma)
# P_topo (ms)      =  714.539005865675  +/- 0.000598
# P'_topo (s/s)    =  -0                +/- 3.16e-10
# P''_topo (s/s^2) =  0                 +/- 1.39e-13
# P_bary (ms)      =  N/A
# P'_bary (s/s)    =  N/A
# P''_bary (s/s^2) =  N/A
# P_orb (s)        =  N/A
# asin(i)/c (s)    =  N/A
# eccentricity     =  N/A
# w (rad)          =  N/A
# T_peri           =  N/A
######################################################
   0  4129.199
   1  4138.81
   2  4043.243
   3  4176.295
   4  4370.853
   5  4423.658
   6  4137.943
   7  4154.086
   8  4347.582
   9  4220.335
  10  4174.628
  11  4315.554
  12  4280.158
  13  4331.761
  14  4554.953
  15  4263.348
  16  4352.727
  17  4700.727
  18  4314.22
  19  4067.022
  20  4222.242
  21  4314.572
  22  4229.541
  23  4452.76
  24  4397.433
  25  4098.95
  26  4151.563
  27  4178.704
  28  4078.259
  29  4506.224
  30  4515.995
  31  4324.906
  32  4842.294
  33  4790.92
  34  4483.769
  35  4561.394
  36  4569.554
  37  4580.28
  38  4572.924
  39  4568.115
  40  4721.448
  41  4488.349
  42  4475.414
  43  4602.585
  44  4558.57
  45  4587.524
  46  4501.736
  47  4994.208
  48  4882.147
  49  4937.413
  50  5230.862
  51  5009.033
  52  4926.01
  53  4649.968
  54  4758.824
  55  5028.636
  56  4895.453
  57  4942.428
  58  4979.362
  59  4916.612
  60  4738.528
  61  4697.94
  62  4514.073
  63  4635.979
  64  4773.652
  65  4466.165
  66  4246.467
  67  4574.641
  68  4896.981
  69  5057.186
  70  4565.296
  71  4571.596
  72  4737.162
  73  4516.562
  74  4645.656
  75  4852.642
  76  4963.102
  77  5040.452
  78  5154.159
  79  4941.868
  80  4516.399
  81  4591.937
  82  4604.853
  83  4609.888
  84  4530.904
  85  4772.807
  86  5055.168
  87  4545.766
  88  4001.442
  89  4125.479
  90  4510.33
  91  4638.791
  92  4604.996
  93  4509.844
  94  4145.084
  95  4387.921
  96  4711.444
  97  4459.602
  98  4589.724
  99  4757.44
 100  4754.965
 101  4895.567
 102  4831.879
 103  4485.544
 104  4687.161
 105  4593.622
 106  4645.212
 107  4393.693
 108  4757.254
 109  4470.02
 110  4531.257
 111  4619.939
 112  4846.73
 113  4639.907
 114  4862.084
 115  4769.933
 116  4608.444
 117  4682.295
 118  4696.3
 119  4478.285
 120  4267.577
 121  4675.413
 122  5025.58
 123  4896.328
 124  5043.619
 125  4671.224
 126  4585.08
 127  4648.157
 128  4757.564
 129  4636.428
 130  4591.687
 131  4820.252
 132  4459.042
 133  4311.555
 134  4333.661
 135  4601.209
 136  4418.639
 137  4607.543
 138  4744.365
 139  4806.034
 140  4626.917
 141  4784.63
 142  5160.987
 143  5357.83
 144  5473.279
 145  5784.305
 146  6396.13
 147  6787.461
 148  6820.177
 149  6093.026
 150  5341.461
 151  4930.712
 152  4593.258
 153  4634.009
 154  4127.091
 155  4052.042
 156  4245.935
 157  4164.317
 158  4366.33
 159  4449.947
 160  4471.057
 161  4320.395
 162  4329.282
 163  4127.741
 164  4314.159
 165  4218.407
 166  4192.715
 167  4330.129
 168  4537.884
 169  4614.247
 170  4361.2
 171  3925.467
 172  3818.404
 173  3915.45
 174  4211.626
 175  4398.732
 176  4751.267
 177  4798.833
 178  4487.827
 179  4504.838
 180  4217.852
 181  4559.471
 182  4476.346
 183  4777.534
 184  4561.491
 185  4355.799
 186  4660.006
 187  4776.332
 188  4932.64
 189  4905.655
 190  5178.646
 191  4871.787
 192  4781.54
 193  4766.32
 194  4606.287
 195  4696.262
 196  4803.225
 197  4795.934
 198  4551.298
 199  4750.623
 200  4934.328
 201  5074.389
 202  4842.834
 203  4641.183
 204  4558.145
 205  4441.003
 206  4784.696
 207  4651.118
 208  4561.016
 209  4428.396
 210  4513.985
 211  4631.207
 212  4825.394
 213  4663.143
 214  4351.988
 215  4589.585
 216  4847.673
 217  4555.97
 218  4378.176
 219  4571.823
 220  4748.815
 221  4813.611
 222  4427.699
 223  4518.361
 224  4753.436
 225  4905.952
 226  4792.894
 227  4551.572
 228  4599.926
 229  4388.647
 230  4558.54
 231  4544.316
 232  4560.4
 233  4620.68
 234  4776.633
 235  4478.314
 236  4475.309
 237  4660.619
 238  4657.086
 239  4552.042
 240  4339.904
 241  4584.058
 242  4259.044
 243  4489.962
 244  4580.621
 245  4739.822
 246  4539.196
 247  4489.676
 248  4372.722
 249  4193.018
 250  4446.25
 251  4214.073
 252  4412.557
 253  4449.4
 254  4497.476
 255  4514.75
 256  4475.376
 257  4582.163
 258  4443.11
 259  4425.819
 260  4773.457
 261  4866.577
 262  4891.507
 263  4750.424
 264  4728.686
 265  4489.979
 266  4476.372
 267  4364.935
 268  4296.064
 269  4418.538
 270  4552.668
 271  4597.736
 272  4490.681
 273  4522.553
 274  4458.089
 275  4266.108
 276  4007.172
 277  4059.536
 278  3977.594
 279  4043.643
 280  4183.617
 281  4518.553
 282  4297.785
 283  4214.47
 284  3960.943
 285  4321.755
 286  4469.541
 287  4413.236
 288  3908.097
 289  3969.679
 290  4294.732
 291  4361.343
 292  4190.969
 293  4064.289
 294  4320.594
 295  4342.053
 296  4336.659
 297  4118.584
 298  4037.91
 299  4195.085
 300  4175.61
 301  4135.292
 302  4411.887
 303  4293.953
 304  4297.963
 305  4081.941
 306  4159.669
 307  4764.556
 308  4943.874
 309  4724.377
 310  4792.607
 311  4886.711
 312  4933.031
 313  5256.02
 314  5015.213
 315  4992.287
 316  4929.749
 317  5045.383
 318  5122.502
 319  4967.55
 320  4818.409
 321  4819.587
 322  4899.98
 323  4995.864
 324  5004.648
 325  5170.352
 326  5260.385
 327  5469.264
 328  5381.749
 329  5179.955
 330  5132.064
 331  5212.015
 332  5136.139
 333  5084.116
 334  5151.096
 335  5126.977
 336  5113.767
 337  5131.421
 338  4848.061
 339  5201.188
 340  5082.316
 341  4928.916
 342  5039.402
 343  4967.118
 344  5045.398
 345  4979.766
 346  4681.796
 347  4979.601
 348  5406.622
 349  5279.615
 350  4945.552
 351  4796.144
 352  4912.352
 353  4975.64
 354  5050.938
 355  5219.728
 356  5037.66
 357  4804.233
 358  4948.411
 359  5114.66
 360  4635.786
 361  4844.036
 362  4621.043
 363  4729.252
 364  4944.363
 365  4811.124
 366  4747.936
 367  4526.856
 368  4472.806
 369  4825.306
 370  5089.73
 371  4875.878
 372  4431.545
 373  4914.25
 374  4851.047
 375  4872.359
 376  4788.054
 377  4769.613
 378  5087.616
 379  4687.878
 380  4583.841
 381  4692.146
 382  4582.775
 383  4632.709
 384  4641.928
 385  4385.189
 386  4478.581
 387  4678.311
 388  4602.369
 389  4226.606
 390  3968.624
 391  4112.589
 392  4282.074
 393  4153.826
 394  4410.096
 395  4533.219
 396  4384.166
 397  4068.95
 398  4268.572
 399  4489.066
 400  4291.851
 401  4441.281
 402  4600.028
 403  4358.285
 404  4300.794
 405  4394.06
 406  4511.69
 407  4514.156
 408  4406.863
 409  4188.204
 410  4085.048
 411  4361.823
 412  4213.459
 413  3866.794
 414  4046.946
 415  3991.284
 416  4017.214
 417  4153.923
 418  4400.822
 419  4437.83
 420  4124.747
 421  3869.237
 422  3988.692
 423  4283.019
 424  4504.845
 425  4395.107
 426  3991.917
 427  4073.887
 428  3833.041
 429  4133.7
 430  4074.53
 431  3962.398
 432  4040.771
 433  3946.175
 434  3733.278
 435  3706.557
 436  3817.861
 437  3944.637
 438  3939.037
 439  3977.964
 440  4195.58
 441  4169.356
 442  4283.212
 443  4236.216
 444  4040.248
 445  4039.171
 446  4082.534
 447  3915.202
 448  3724.001
 449  3787.604
 450  3659.142
 451  3605.474
 452  3756.546
 453  3797.01
 454  3577.459
 455  3574.317
 456  3725.089
 457  3481.177
 458  3510.102
 459  3781.799
 460  3788.432
 461  3864.083
 462  3973.568
 463  4217.515
 464  4113.422
 465  4100.484
 466  4264.594
 467  4202.769
 468  4489.867
 469  4429.379
 470  4200.299
 471  4321.438
 472  3977.492
 473  3886.975
 474  4098.861
 475  4060.127
 476  4088.775
 477  4204.038
 478  4447.681
 479  4395.425
 480  4270.797
 481  4123.833
 482  4116.898
 483  4147.675
 484  4603.929
 485  4524.018
 486  4490.911
 487  4314.789
 488  4404.919
 489  4146.746
 490  3947.083
 491  4501.074
 492  4309.864
 493  4359.604
 494  4288.399
 495  4184.735
 496  4035.619
 497  3939.007
 498  4272.198
 499  4230.375
 500  4145.329
 501  4230.977
 502  4351.354
 503  4399.908
 504  4250.491
 505  4069.994
 506  4642.535
 507  4705.118
 508  4485.334
 509  4134.857
 510  4031.219
 511  4166.612
