# Input file       =  1209029504.11775_cleaned.dat
# Candidate        =  PSR_0332+5434
# Telescope        =  AR
# Epoch_topo       =  58237.397258307290
# Epoch_bary       =  N/A
# T_sample         =  0.002
# Data Folded      =  7340032
# Data Avg         =  0.0440638900216752
# Data StdDev      =  1.00017268759313 
# Profile Bins     =  512
# Profile Avg      =  631.634566117639 
# Profile StdDev   =  119.753712786636 
# Reduced chi-sqr  =  1.054
# Prob(Noise)      <  0.192   (~0.9 sigma)
# P_topo (ms)      =  714.548162075391  +/- 0.000411
# P'_topo (s/s)    =  -0                +/- 2.17e-10
# P''_topo (s/s^2) =  0                 +/- 9.57e-14
# P_bary (ms)      =  N/A
# P'_bary (s/s)    =  N/A
# P''_bary (s/s^2) =  N/A
# P_orb (s)        =  N/A
# asin(i)/c (s)    =  N/A
# eccentricity     =  N/A
# w (rad)          =  N/A
# T_peri           =  N/A
######################################################
   0  1168.345
   1  1173.979
   2  965.4876
   3  781.9148
   4  723.6513
   5  644.5143
   6  640.5771
   7  587.5213
   8  545.2357
   9  511.8574
  10  544.3055
  11  626.3659
  12  585.4633
  13  546.8018
  14  569.0123
  15  555.2344
  16  589.3394
  17  569.9659
  18  583.6014
  19  551.3921
  20  504.2575
  21  561.5364
  22  551.8387
  23  589.3459
  24  653.8571
  25  612.9782
  26  559.6872
  27  495.0384
  28  558.8224
  29  635.1301
  30  639.0211
  31  652.5952
  32  735.9766
  33  720.7968
  34  562.8336
  35  521.1478
  36  612.4816
  37  633.6634
  38  547.9995
  39  578.2362
  40  613.5328
  41  648.3821
  42  599.7006
  43  514.8439
  44  618.8751
  45  678.6633
  46  607.3516
  47  539.4573
  48  552.384
  49  566.7194
  50  528.1345
  51  522.463
  52  571.6678
  53  567.7148
  54  614.6135
  55  654.0435
  56  619.9963
  57  546.0889
  58  582.9263
  59  593.0587
  60  601.3876
  61  542.5828
  62  585.4604
  63  594.4405
  64  533.6516
  65  550.1326
  66  541.8256
  67  543.8616
  68  616.5709
  69  638.005
  70  574.9527
  71  592.1237
  72  579.985
  73  568.6609
  74  613.1447
  75  660.1499
  76  631.0701
  77  560.6414
  78  612.1087
  79  599.0648
  80  597.3002
  81  597.1263
  82  586.7239
  83  555.1935
  84  664.2412
  85  670.1605
  86  543.2858
  87  503.9547
  88  552.6058
  89  626.4344
  90  604.2154
  91  597.4627
  92  566.7036
  93  603.1089
  94  573.6094
  95  570.363
  96  568.5213
  97  561.6959
  98  592.8456
  99  609.6066
 100  649.9387
 101  664.9273
 102  640.3809
 103  628.7673
 104  566.8079
 105  566.22
 106  634.6427
 107  616.9766
 108  599.3995
 109  657.499
 110  615.9718
 111  588.2255
 112  588.5176
 113  643.1849
 114  596.161
 115  665.1332
 116  736.4107
 117  595.1087
 118  646.9953
 119  675.9252
 120  664.5032
 121  594.5876
 122  636.9275
 123  690.8418
 124  679.0029
 125  668.8615
 126  636.4445
 127  634.7266
 128  695.4832
 129  691.2151
 130  660.2428
 131  698.3318
 132  738.3142
 133  650.7227
 134  594.938
 135  638.7654
 136  657.9864
 137  557.662
 138  591.3959
 139  664.8724
 140  692.5943
 141  653.1164
 142  653.6223
 143  705.811
 144  763.6993
 145  720.5993
 146  732.89
 147  764.0078
 148  803.9666
 149  756.9581
 150  746.5639
 151  680.7493
 152  734.3188
 153  633.2443
 154  570.6028
 155  646.1899
 156  655.3109
 157  628.0204
 158  676.8249
 159  722.6108
 160  746.8947
 161  703.0971
 162  675.1135
 163  709.922
 164  703.5162
 165  659.814
 166  633.4675
 167  638.4447
 168  692.8715
 169  712.5786
 170  685.1237
 171  709.7009
 172  623.3094
 173  570.2442
 174  645.671
 175  686.0499
 176  795.3638
 177  751.8893
 178  718.1689
 179  760.2914
 180  705.6949
 181  678.7642
 182  765.337
 183  706.8969
 184  701.8878
 185  692.4747
 186  777.4916
 187  761.895
 188  738.5565
 189  831.7341
 190  834.9985
 191  739.9163
 192  781.2493
 193  773.6538
 194  669.7599
 195  640.4224
 196  688.0584
 197  797.2458
 198  797.8024
 199  742.2031
 200  649.2831
 201  674.6422
 202  621.4979
 203  679.5291
 204  713.2955
 205  759.6715
 206  780.7134
 207  880.6025
 208  842.8838
 209  853.6509
 210  825.8535
 211  785.5981
 212  779.4169
 213  759.9532
 214  798.0749
 215  851.0475
 216  743.7999
 217  647.1636
 218  637.8632
 219  665.2127
 220  668.6808
 221  716.9017
 222  798.3096
 223  704.8365
 224  676.8932
 225  609.8122
 226  652.7179
 227  655.1542
 228  762.8273
 229  800.9118
 230  723.0852
 231  756.6219
 232  768.6346
 233  697.808
 234  657.5518
 235  696.0233
 236  709.2969
 237  737.3167
 238  649.4613
 239  624.2623
 240  666.1678
 241  639.2822
 242  639.207
 243  674.653
 244  681.6562
 245  731.4834
 246  685.006
 247  649.7343
 248  643.751
 249  731.7713
 250  720.9838
 251  692.2442
 252  625.1846
 253  698.0273
 254  664.8327
 255  582.1537
 256  662.1982
 257  708.0024
 258  660.4693
 259  674.1723
 260  659.9682
 261  583.2582
 262  530.1088
 263  580.8351
 264  659.395
 265  606.8479
 266  527.1371
 267  536.1499
 268  537.669
 269  541.7366
 270  506.723
 271  521.6151
 272  544.5725
 273  537.7073
 274  498.2117
 275  488.0168
 276  436.5746
 277  422.0187
 278  507.5216
 279  579.6912
 280  491.2961
 281  469.0571
 282  463.0616
 283  477.8934
 284  576.781
 285  598.5051
 286  502.8795
 287  488.2902
 288  627.704
 289  581.295
 290  499.9334
 291  519.7141
 292  542.2949
 293  520.2629
 294  518.399
 295  515.2956
 296  552.1282
 297  608.6204
 298  583.1283
 299  612.1298
 300  560.7856
 301  673.6024
 302  628.1388
 303  561.8627
 304  593.1143
 305  626.0153
 306  671.8072
 307  619.1605
 308  578.5407
 309  640.1581
 310  680.2297
 311  678.5676
 312  693.4456
 313  641.8893
 314  603.8463
 315  577.9321
 316  635.3336
 317  623.6669
 318  580.8201
 319  616.5198
 320  542.4933
 321  560.8857
 322  602.8345
 323  658.9864
 324  589.7104
 325  600.6502
 326  599.4506
 327  616.895
 328  655.6777
 329  580.7652
 330  592.9256
 331  541.3246
 332  566.7343
 333  590.3196
 334  551.4048
 335  519.3499
 336  509.4986
 337  518.8594
 338  563.785
 339  566.0365
 340  627.1608
 341  634.4874
 342  630.8282
 343  618.9157
 344  573.9397
 345  669.7135
 346  737.9484
 347  701.5696
 348  643.1619
 349  617.7635
 350  594.2593
 351  656.4968
 352  638.2725
 353  643.3011
 354  657.7497
 355  607.7017
 356  620.5869
 357  576.3551
 358  622.0905
 359  558.9214
 360  560.7153
 361  602.0369
 362  559.5032
 363  541.5263
 364  633.6629
 365  619.4097
 366  610.231
 367  579.6751
 368  619.0726
 369  503.5295
 370  514.8777
 371  557.2634
 372  626.6185
 373  581.5586
 374  567.9866
 375  612.0045
 376  562.1752
 377  551.7852
 378  628.4611
 379  598.9343
 380  537.7925
 381  525.1375
 382  562.7031
 383  556.7888
 384  516.9039
 385  525.6295
 386  483.3529
 387  515.0074
 388  562.0497
 389  549.4181
 390  587.4536
 391  613.0474
 392  619.1356
 393  639.4588
 394  704.6289
 395  710.9178
 396  709.7245
 397  629.3358
 398  614.0418
 399  546.0014
 400  560.6148
 401  541.5505
 402  537.2198
 403  565.8936
 404  571.5776
 405  685.2143
 406  675.4521
 407  610.5327
 408  590.266
 409  663.03
 410  687.7862
 411  712.5536
 412  681.866
 413  589.9688
 414  546.3688
 415  622.0807
 416  646.1268
 417  549.5828
 418  472.8622
 419  559.472
 420  583.7151
 421  622.4834
 422  626.2587
 423  613.4582
 424  612.7562
 425  638.7967
 426  645.0719
 427  594.4558
 428  571.0793
 429  588.5685
 430  690.254
 431  670.9179
 432  645.1353
 433  590.873
 434  566.7629
 435  479.2902
 436  542.4512
 437  647.147
 438  650.7534
 439  653.6697
 440  639.4022
 441  546.6824
 442  547.998
 443  623.8682
 444  613.7152
 445  616.8922
 446  661.6801
 447  634.6814
 448  593.0064
 449  611.0891
 450  599.5039
 451  645.4199
 452  621.2194
 453  629.2066
 454  529.3343
 455  538.9683
 456  514.8481
 457  577.6278
 458  615.7411
 459  597.1725
 460  603.9556
 461  619.6896
 462  550.0211
 463  626.1746
 464  644.5165
 465  631.1389
 466  605.2052
 467  637.5967
 468  697.4393
 469  629.0546
 470  705.7255
 471  694.8395
 472  710.1351
 473  585.7573
 474  665.4874
 475  672.1793
 476  625.6321
 477  663.9285
 478  617.4898
 479  645.7
 480  718.2047
 481  678.1088
 482  654.9321
 483  684.1215
 484  619.7114
 485  549.05
 486  561.5143
 487  606.0978
 488  601.4996
 489  597.3446
 490  632.0879
 491  561.7507
 492  573.3791
 493  623.2686
 494  620.6872
 495  613.6844
 496  647.8923
 497  648.283
 498  575.1871
 499  578.7514
 500  561.8167
 501  632.5645
 502  698.3388
 503  650.6795
 504  616.0013
 505  620.9209
 506  630.2984
 507  753.9642
 508  808.8899
 509  942.9716
 510  1126.317
 511  1098.163
