# Input file       =  1209201872.113502_cleaned.dat
# Candidate        =  PSR_0332+5434
# Telescope        =  AR
# Epoch_topo       =  58239.392258258122
# Epoch_bary       =  N/A
# T_sample         =  0.002
# Data Folded      =  7340032
# Data Avg         =  0.0627275018725531
# Data StdDev      =  0.999914946564682
# Profile Bins     =  512
# Profile Avg      =  898.248206454224 
# Profile StdDev   =  119.722852670701 
# Reduced chi-sqr  =  1.813
# Prob(Noise)      <  1.94e-26   (~10.6 sigma)
# P_topo (ms)      =  714.54638048538   +/- 0.000341
# P'_topo (s/s)    =  -0                +/- 1.8e-10
# P''_topo (s/s^2) =  0                 +/- 7.95e-14
# P_bary (ms)      =  N/A
# P'_bary (s/s)    =  N/A
# P''_bary (s/s^2) =  N/A
# P_orb (s)        =  N/A
# asin(i)/c (s)    =  N/A
# eccentricity     =  N/A
# w (rad)          =  N/A
# T_peri           =  N/A
######################################################
   0  1418.04
   1  1356.911
   2  1313.743
   3  1074.47
   4  995.8503
   5  1005.312
   6  994.4731
   7  980.9842
   8  954.348
   9  971.0076
  10  940.2443
  11  956.1736
  12  975.6298
  13  983.1847
  14  988.292
  15  904.486
  16  880.9541
  17  800.8894
  18  743.1351
  19  691.1061
  20  698.6418
  21  689.0103
  22  683.3371
  23  645.8112
  24  617.4339
  25  682.466
  26  732.4219
  27  753.915
  28  776.1432
  29  807.4728
  30  770.6977
  31  702.946
  32  705.1506
  33  712.7452
  34  687.6648
  35  655.8174
  36  576.0135
  37  571.9932
  38  687.863
  39  708.502
  40  688.4957
  41  654.5022
  42  643.1479
  43  607.3632
  44  677.5611
  45  723.373
  46  683.9499
  47  637.7015
  48  555.2909
  49  592.4951
  50  646.7332
  51  581.9142
  52  575.2468
  53  660.6772
  54  691.8893
  55  682.6345
  56  746.9795
  57  716.6001
  58  729.045
  59  811.874
  60  780.8381
  61  701.6486
  62  691.8105
  63  695.3417
  64  723.4469
  65  709.5426
  66  714.2386
  67  790.9602
  68  751.4918
  69  789.7542
  70  786.1334
  71  745.3387
  72  832.3577
  73  858.5101
  74  890.6511
  75  824.688
  76  806.6371
  77  799.7339
  78  761.0867
  79  811.3099
  80  858.1802
  81  857.4012
  82  841.1874
  83  840.3456
  84  876.7694
  85  903.4124
  86  945.9067
  87  923.7231
  88  987.3868
  89  909.4148
  90  844.1911
  91  936.4169
  92  941.4822
  93  932.0067
  94  818.2162
  95  807.6409
  96  764.86
  97  816.624
  98  860.9718
  99  891.2499
 100  860.3511
 101  973.6755
 102  881.2329
 103  775.4304
 104  853.8701
 105  814.6613
 106  747.7616
 107  719.6511
 108  777.048
 109  801.9506
 110  772.0716
 111  777.0693
 112  695.5969
 113  729.2817
 114  799.8255
 115  815.9397
 116  842.9072
 117  862.4231
 118  871.2866
 119  811.8751
 120  915.1967
 121  984.7894
 122  985.9633
 123  934.7195
 124  874.4351
 125  810.6272
 126  855.7673
 127  809.4213
 128  774.5504
 129  877.3801
 130  926.3267
 131  876.1641
 132  872.2621
 133  898.0701
 134  905.2883
 135  841.8462
 136  824.6777
 137  910.0287
 138  927.4176
 139  869.9022
 140  882.065
 141  881.4605
 142  881.5855
 143  918.0034
 144  814.6456
 145  853.0438
 146  915.4935
 147  933.2714
 148  875.5786
 149  847.2957
 150  914.2704
 151  830.204
 152  839.2603
 153  848.8878
 154  911.0465
 155  886.6879
 156  811.8387
 157  821.8868
 158  967.6255
 159  949.8945
 160  838.6877
 161  830.0781
 162  804.9166
 163  855.8911
 164  842.9064
 165  889.4974
 166  934.5598
 167  814.6647
 168  915.98
 169  871.9633
 170  843.9304
 171  896.4254
 172  870.136
 173  843.5809
 174  845.4604
 175  887.675
 176  899.912
 177  844.3722
 178  870.2777
 179  816.9995
 180  778.174
 181  811.4794
 182  853.6281
 183  868.0995
 184  812.3787
 185  828.2744
 186  807.1498
 187  734.2309
 188  763.7908
 189  835.3492
 190  887.1732
 191  851.5992
 192  818.4269
 193  817.2071
 194  730.6741
 195  790.8442
 196  810.2086
 197  861.2249
 198  829.6957
 199  824.5621
 200  923.8784
 201  876.4465
 202  807.2319
 203  885.1777
 204  982.97
 205  983.0461
 206  1003.147
 207  961.1116
 208  963.7906
 209  974.7997
 210  984.7269
 211  957.9186
 212  1037.843
 213  1015.61
 214  922.8187
 215  915.4321
 216  958.0211
 217  925.6926
 218  884.3734
 219  916.879
 220  1044.383
 221  1069.549
 222  1056.31
 223  1027.607
 224  1048.984
 225  1002.381
 226  1010.883
 227  975.5745
 228  1024.704
 229  948.8439
 230  969.3876
 231  908.6667
 232  906.9902
 233  889.4379
 234  892.8864
 235  883.0889
 236  977.8938
 237  1030.727
 238  960.4415
 239  941.3475
 240  910.0449
 241  943.2126
 242  967.4604
 243  894.2483
 244  962.0891
 245  803.9326
 246  758.7329
 247  851.3337
 248  869.9882
 249  859.6314
 250  839.7164
 251  813.3499
 252  880.6003
 253  870.9516
 254  836.546
 255  792.4774
 256  858.946
 257  872.5849
 258  956.1449
 259  910.3351
 260  849.3453
 261  951.4404
 262  902.4222
 263  873.1843
 264  925.6966
 265  927.282
 266  889.1627
 267  913.4127
 268  1032.242
 269  1033.806
 270  926.9551
 271  952.8909
 272  957.4235
 273  877.3795
 274  1000.922
 275  990.8709
 276  997.7308
 277  1029.317
 278  1012.784
 279  935.2338
 280  1027.401
 281  1037.468
 282  1049.408
 283  1051.614
 284  995.3213
 285  993.4341
 286  923.5551
 287  1070.315
 288  1125.91
 289  1076.343
 290  1053.694
 291  1070.671
 292  975.5492
 293  971.7647
 294  1033.593
 295  1089.594
 296  1031.851
 297  918.4561
 298  1013.309
 299  1037.164
 300  1002.646
 301  902.6434
 302  934.7183
 303  1001.366
 304  1082.853
 305  1085.2
 306  966.5394
 307  965.1913
 308  1031.725
 309  1039.524
 310  1074.968
 311  1102.299
 312  1117.861
 313  1055.615
 314  1125.592
 315  1102.202
 316  1071.002
 317  1030.237
 318  1062.238
 319  1044.873
 320  1006.992
 321  1061.961
 322  1047.052
 323  974.5035
 324  858.5726
 325  913.1509
 326  1032.01
 327  991.5836
 328  964.0802
 329  936.1656
 330  982.7814
 331  962.1563
 332  972.1554
 333  958.5307
 334  953.462
 335  993.7132
 336  905.7887
 337  799.0251
 338  786.9156
 339  862.7302
 340  880.2574
 341  891.5676
 342  931.4433
 343  914.7737
 344  1029.262
 345  1009.979
 346  981.9313
 347  942.2083
 348  963.7293
 349  954.7613
 350  1047.945
 351  1020.778
 352  945.7468
 353  926.2931
 354  950.7607
 355  973.8046
 356  1023.177
 357  1089.014
 358  1032.054
 359  1010.753
 360  1028.825
 361  1006.469
 362  1019.192
 363  1083.361
 364  930.8502
 365  901.6985
 366  897.8685
 367  869.1863
 368  851.1702
 369  845.8946
 370  920.8488
 371  993.98
 372  994.7058
 373  922.2253
 374  938.6169
 375  924.5538
 376  940.1657
 377  877.4561
 378  918.7424
 379  909.1902
 380  950.0107
 381  877.3576
 382  905.8629
 383  918.395
 384  900.6089
 385  965.9598
 386  957.5413
 387  1018.576
 388  1002.752
 389  938.6736
 390  978.7604
 391  952.343
 392  978.2994
 393  866.7253
 394  881.3546
 395  934.2629
 396  920.6339
 397  857.5455
 398  836.1281
 399  810.4901
 400  824.4984
 401  870.0307
 402  818.9674
 403  847.0822
 404  923.2092
 405  927.7701
 406  929.5254
 407  845.3036
 408  937.0282
 409  960.0214
 410  898.3895
 411  863.5455
 412  908.0648
 413  1020.506
 414  975.2938
 415  937.9919
 416  987.9407
 417  1019.616
 418  1000.629
 419  989.8162
 420  957.0089
 421  992.6888
 422  1039.388
 423  1021.955
 424  1062.535
 425  1077.235
 426  933.1767
 427  921.7339
 428  942.1744
 429  922.0983
 430  971.5084
 431  959.8638
 432  954.2961
 433  982.3746
 434  960.1001
 435  910.5761
 436  946.5667
 437  1022.585
 438  987.3926
 439  885.4012
 440  854.0305
 441  891.053
 442  976.4528
 443  949.5118
 444  957.0021
 445  976.688
 446  893.6884
 447  878.3378
 448  851.2455
 449  929.1633
 450  957.4647
 451  929.6121
 452  956.349
 453  952.2936
 454  931.4144
 455  994.1487
 456  891.3199
 457  788.8137
 458  846.826
 459  928.009
 460  935.0527
 461  930.5208
 462  947.345
 463  860.7596
 464  810.2148
 465  877.1532
 466  853.2938
 467  852.0162
 468  797.9359
 469  796.0461
 470  806.529
 471  719.1974
 472  730.2168
 473  879.1786
 474  861.0663
 475  821.431
 476  771.0562
 477  762.89
 478  763.178
 479  768.0524
 480  831.4832
 481  803.9955
 482  817.3049
 483  780.1237
 484  780.1003
 485  749.5685
 486  803.4219
 487  819.8214
 488  845.1129
 489  891.6492
 490  888.7913
 491  915.2614
 492  884.044
 493  872.1047
 494  877.117
 495  859.0843
 496  919.6889
 497  910.316
 498  871.4133
 499  924.6583
 500  963.6164
 501  916.0486
 502  983.927
 503  994.3218
 504  1025.461
 505  1035.075
 506  1015.503
 507  1005.425
 508  1097.327
 509  1213.49
 510  1350.778
 511  1404.677
