# Input file       =  1209460304.110143_cleaned.dat
# Candidate        =  PSR_0332+5434
# Telescope        =  AR
# Epoch_topo       =  58242.383369330360
# Epoch_bary       =  N/A
# T_sample         =  0.002
# Data Folded      =  7340032
# Data Avg         =  0.482256845183397
# Data StdDev      =  6.53355956865015 
# Profile Bins     =  512
# Profile Avg      =  6910.6845022092  
# Profile StdDev   =  782.282925502956 
# Reduced chi-sqr  =  0.640
# Prob(Noise)      <  1   (~0.0 sigma)
# P_topo (ms)      =  714.543660571908  +/- 0.00049
# P'_topo (s/s)    =  -0                +/- 2.59e-10
# P''_topo (s/s^2) =  0                 +/- 1.14e-13
# P_bary (ms)      =  N/A
# P'_bary (s/s)    =  N/A
# P''_bary (s/s^2) =  N/A
# P_orb (s)        =  N/A
# asin(i)/c (s)    =  N/A
# eccentricity     =  N/A
# w (rad)          =  N/A
# T_peri           =  N/A
######################################################
   0  8174.817
   1  7485.327
   2  7518.831
   3  7517.592
   4  7227.804
   5  7274.435
   6  7506.415
   7  7599.654
   8  7267.307
   9  6908.678
  10  6524.107
  11  6366.466
  12  6505.222
  13  6711.675
  14  6911.57
  15  6639.172
  16  6650.532
  17  6731.4
  18  6605.945
  19  6668.643
  20  6701.09
  21  7091.706
  22  6964.529
  23  7035.622
  24  7153.772
  25  6865.86
  26  6490.383
  27  6390.313
  28  6456.445
  29  6391.764
  30  6428.633
  31  6765.809
  32  6590.823
  33  6299.941
  34  6597.9
  35  6945.903
  36  6953.887
  37  6728.521
  38  6982.896
  39  6916.794
  40  6990.667
  41  6945.118
  42  6952.357
  43  6987.657
  44  6925.106
  45  6759.666
  46  6996.075
  47  6685.76
  48  6843.639
  49  7395.697
  50  7732.755
  51  7939.522
  52  7343.863
  53  7246.849
  54  6870.23
  55  7072.637
  56  7058.912
  57  7319.706
  58  7256.504
  59  7404.593
  60  7385.93
  61  7531.479
  62  7102.413
  63  6846.542
  64  6852.422
  65  6994.906
  66  7238.544
  67  7039.505
  68  7194.396
  69  6828.987
  70  6506.716
  71  6772.188
  72  6802.767
  73  6999.374
  74  7120.191
  75  7240.285
  76  7121.719
  77  6476.011
  78  6232.32
  79  6676.348
  80  7208.571
  81  7515.625
  82  7338.958
  83  7069.355
  84  6918.273
  85  7374.085
  86  7340.688
  87  7448.733
  88  7975.783
  89  7677.76
  90  7484.824
  91  7614.998
  92  7668.77
  93  7466.599
  94  7531.375
  95  7174.479
  96  6943.287
  97  6832.348
  98  6728.566
  99  7224.689
 100  7362.986
 101  6765.096
 102  6743.114
 103  6623.732
 104  6422.576
 105  6573.937
 106  6676.618
 107  6816.919
 108  6675.641
 109  6899.25
 110  6466.816
 111  6253.269
 112  6261.375
 113  6541.46
 114  6630.781
 115  7022.225
 116  7189.977
 117  7155.75
 118  6917.965
 119  6973.753
 120  6978.701
 121  7213.95
 122  7266.52
 123  7139.448
 124  7160.926
 125  7168.817
 126  6599.291
 127  6358.286
 128  6571.506
 129  6765.976
 130  6593.934
 131  6473.719
 132  6534.407
 133  6173.52
 134  6468.444
 135  6846.013
 136  7003.769
 137  7099.376
 138  6749.682
 139  6625.633
 140  6641.281
 141  6636.962
 142  7029.21
 143  7159.523
 144  6977.113
 145  6852.186
 146  7359.338
 147  7138.344
 148  7307.59
 149  7142.787
 150  7078.178
 151  7241.006
 152  7720.29
 153  7879.307
 154  7771.119
 155  7061.748
 156  6532.459
 157  6358.624
 158  6580.908
 159  6689.783
 160  6828.079
 161  6373.071
 162  6452.541
 163  6917.085
 164  6816.202
 165  6953.23
 166  7087.566
 167  7130.969
 168  7168.839
 169  7061.875
 170  7344.075
 171  6965.325
 172  6582.792
 173  7127.652
 174  7262.229
 175  7348.621
 176  7773.368
 177  7930.748
 178  7545.341
 179  7315.382
 180  7036.717
 181  7275.187
 182  7512.695
 183  7273.023
 184  7085.732
 185  7190.169
 186  7185.342
 187  7389.476
 188  7203.78
 189  6900.598
 190  7041.612
 191  6750.66
 192  6396.588
 193  6501.077
 194  6729.217
 195  6837.669
 196  6683.202
 197  6486.626
 198  6573.635
 199  6891.901
 200  6793.524
 201  6679.98
 202  7062.08
 203  6938.104
 204  7037.882
 205  6819.687
 206  6302.525
 207  6598.772
 208  7018.894
 209  6828.105
 210  6552.752
 211  6356.683
 212  6946.815
 213  7137.956
 214  7032.561
 215  6867.215
 216  6846.484
 217  7031.736
 218  7488.139
 219  7411.025
 220  7416.515
 221  7617.567
 222  7981.805
 223  8317.187
 224  8738.963
 225  8597.108
 226  8175.859
 227  7494.671
 228  6618.91
 229  6633.234
 230  6886.208
 231  7181.34
 232  6792.808
 233  6651.314
 234  6830.688
 235  6813.271
 236  7175.549
 237  7387.571
 238  7294.336
 239  7500.91
 240  7494.681
 241  7090.153
 242  7161.362
 243  7425.502
 244  7637.847
 245  7866.014
 246  7880.612
 247  7904.352
 248  7563.947
 249  7320
 250  7427.721
 251  7670.019
 252  7683.991
 253  7504.962
 254  7562.264
 255  7735.553
 256  7285.368
 257  7361.192
 258  7702.868
 259  7634.496
 260  7298.12
 261  7379.364
 262  7214.667
 263  7475.789
 264  7788.269
 265  7442.46
 266  7259.184
 267  6899.371
 268  7009.309
 269  7048.514
 270  6495.029
 271  6556.071
 272  6770.427
 273  6594.607
 274  7060.377
 275  7343.25
 276  7058.199
 277  6892.857
 278  6798.433
 279  6716.984
 280  7052.142
 281  7569.9
 282  7442.272
 283  6947.441
 284  7178.519
 285  7324.507
 286  7799.66
 287  7543.222
 288  7192.917
 289  7207.208
 290  7247.546
 291  6881.224
 292  6676.592
 293  6525.157
 294  6249.978
 295  6143.245
 296  6377.628
 297  6812.467
 298  6729.528
 299  6994.902
 300  6584.669
 301  6523.011
 302  6742.104
 303  6818.563
 304  6872.55
 305  6710.146
 306  6520.829
 307  6677.289
 308  6379.462
 309  6143.591
 310  6805.566
 311  6894.529
 312  6573.883
 313  6289.289
 314  6085.689
 315  5789.423
 316  5885.714
 317  6624.402
 318  6774.735
 319  6889.478
 320  6887.8
 321  6895.833
 322  6464.356
 323  6014.673
 324  6389.765
 325  6554.685
 326  6324.717
 327  6439.158
 328  6823.991
 329  6826.368
 330  7059.979
 331  6940.006
 332  7018.545
 333  6853.307
 334  6572.776
 335  6428.657
 336  6821.792
 337  6866.8
 338  6852.161
 339  6931.854
 340  7065.51
 341  6690.333
 342  6695.197
 343  6643.144
 344  6770.863
 345  6940.484
 346  7086.459
 347  6903.18
 348  6797.669
 349  6673.931
 350  6480.572
 351  6799.86
 352  6766.188
 353  6644.741
 354  6833.162
 355  6784.017
 356  7098.624
 357  7052.305
 358  6881.219
 359  7324.564
 360  7421.133
 361  7362.414
 362  7109.83
 363  6902.055
 364  6853.912
 365  6981.412
 366  6887.288
 367  6731.709
 368  6867.059
 369  6757.523
 370  6364.718
 371  6812.789
 372  6598.647
 373  5971.933
 374  6229.943
 375  6538.976
 376  6638.725
 377  6726.724
 378  6639.665
 379  6349.43
 380  6350.302
 381  6608.581
 382  6490.067
 383  6869.422
 384  6820.73
 385  6910.036
 386  7178.028
 387  7200.188
 388  7215.345
 389  6935.396
 390  6968.137
 391  6941.975
 392  7320.284
 393  7163.046
 394  7378.898
 395  7280.25
 396  7201.429
 397  6854.176
 398  7117.718
 399  7620.788
 400  7505.974
 401  7548.16
 402  7597.92
 403  7365.606
 404  7069.461
 405  7172.916
 406  6858.15
 407  6583.04
 408  6253.384
 409  6271.446
 410  5895.749
 411  5658.504
 412  5906.21
 413  5863.168
 414  6052.316
 415  6202.878
 416  5923.733
 417  6116.722
 418  6400.588
 419  6450.088
 420  7013.563
 421  7046.411
 422  6969.729
 423  6694.724
 424  6563.422
 425  6542.084
 426  6645.156
 427  6538.838
 428  6742.006
 429  6878.533
 430  6700.366
 431  6897.717
 432  6804.603
 433  6693.334
 434  6752.291
 435  6656.426
 436  6541.402
 437  6461.127
 438  6287.852
 439  5946.463
 440  5791.435
 441  6035.102
 442  5997.542
 443  6169.43
 444  6513.286
 445  6161.408
 446  6261.189
 447  6712.716
 448  6580.176
 449  6502.153
 450  6640.711
 451  6757.899
 452  6818.744
 453  6862.646
 454  6863.13
 455  7033.882
 456  6525.529
 457  6439.083
 458  6665.084
 459  6547.488
 460  6539.073
 461  6908.158
 462  6846.118
 463  6870.136
 464  6736.801
 465  6580.483
 466  6910.102
 467  6911.013
 468  7010.74
 469  7196.133
 470  6940.526
 471  6310.109
 472  6105.995
 473  6067.716
 474  6265.984
 475  5945.976
 476  6273.491
 477  6448.021
 478  5933.798
 479  5989.197
 480  6211.486
 481  6275.468
 482  6229.598
 483  6681.57
 484  6710.466
 485  6409.953
 486  6713.913
 487  6698.581
 488  6936.23
 489  6503.739
 490  6167.505
 491  6680.544
 492  6916.492
 493  6969.41
 494  6916.544
 495  7020.723
 496  7023.79
 497  7291.792
 498  7356.018
 499  6882.886
 500  6885.146
 501  7226.771
 502  7080.91
 503  6998.229
 504  7302.931
 505  7346.354
 506  7203.662
 507  7090.336
 508  7152.548
 509  7386.553
 510  7738.817
 511  8470.295
