# Input file       =  1209962704.113044_cleaned.dat
# Candidate        =  PSR_0332+5434
# Telescope        =  AR
# Epoch_topo       =  58248.198184178749
# Epoch_bary       =  N/A
# T_sample         =  0.002
# Data Folded      =  7143424
# Data Avg         =  0.036619355546821
# Data StdDev      =  1.00006990089891 
# Profile Bins     =  512
# Profile Avg      =  510.989552714663 
# Profile StdDev   =  118.126841077101 
# Reduced chi-sqr  =  2.252
# Prob(Noise)      <  2.78e-51   (~15.0 sigma)
# P_topo (ms)      =  714.538205959917  +/- 0.000125
# P'_topo (s/s)    =  -0                +/- 6.8e-11
# P''_topo (s/s^2) =  0                 +/- 3.08e-14
# P_bary (ms)      =  N/A
# P'_bary (s/s)    =  N/A
# P''_bary (s/s^2) =  N/A
# P_orb (s)        =  N/A
# asin(i)/c (s)    =  N/A
# eccentricity     =  N/A
# w (rad)          =  N/A
# T_peri           =  N/A
######################################################
   0  1464.422
   1  1409.599
   2  1052.906
   3  797.424
   4  609.7488
   5  546.321
   6  425.0533
   7  549.8146
   8  640.7775
   9  556.2269
  10  568.7154
  11  535.7929
  12  465.9261
  13  523.0388
  14  627.0133
  15  694.9506
  16  672.6664
  17  640.657
  18  552.5251
  19  540.5299
  20  508.7935
  21  505.9577
  22  596.6586
  23  565.3713
  24  435.5947
  25  487.8275
  26  358.3231
  27  460.4809
  28  570.0578
  29  600.1652
  30  647.8368
  31  548.4062
  32  579.3624
  33  591.5001
  34  462.1834
  35  441.9166
  36  494.3402
  37  534.9539
  38  468.6766
  39  520.4744
  40  504.8053
  41  414.0349
  42  405.8504
  43  447.112
  44  526.0679
  45  494.051
  46  518.3439
  47  641.5453
  48  549.3228
  49  511.0435
  50  435.9667
  51  434.5335
  52  588.2673
  53  539.3564
  54  384.0054
  55  450.7031
  56  411.7358
  57  450.0978
  58  341.4396
  59  403.7904
  60  583.2941
  61  467.4592
  62  428.2886
  63  507.2906
  64  543.4308
  65  493.1928
  66  449.6432
  67  491.1534
  68  552.0876
  69  548.7255
  70  483.2472
  71  540.5494
  72  461.3717
  73  416.0525
  74  397.4761
  75  401.7257
  76  408.8279
  77  438.2881
  78  445.3695
  79  446.7985
  80  337.4771
  81  344.8524
  82  493.8167
  83  644.3367
  84  661.5247
  85  556.3937
  86  594.7183
  87  445.775
  88  596.3248
  89  545.3299
  90  519.9194
  91  433.298
  92  415.6687
  93  476.9719
  94  515.4507
  95  588.1246
  96  609.2291
  97  600.991
  98  456.258
  99  502.0165
 100  478.4143
 101  569.9856
 102  551.6893
 103  376.4346
 104  451.927
 105  521.6147
 106  551.8649
 107  513.118
 108  508.2161
 109  564.065
 110  565.9536
 111  601.4925
 112  568.913
 113  375.0151
 114  504.6197
 115  683.6932
 116  514.4778
 117  548.306
 118  584.8651
 119  606.1631
 120  390.0969
 121  356.9738
 122  464.0768
 123  333.3167
 124  410.7441
 125  618.4697
 126  746.0273
 127  496.799
 128  442.791
 129  508.8993
 130  628.1862
 131  669.7324
 132  511.2757
 133  645.9991
 134  677.2234
 135  635.6416
 136  630.3222
 137  522.8466
 138  594.7713
 139  615.9779
 140  503.1465
 141  397.8491
 142  429.9931
 143  650.1843
 144  689.0885
 145  555.0146
 146  514.9394
 147  547.8106
 148  582.8503
 149  634.7328
 150  638.8078
 151  604.79
 152  550.7208
 153  481.1475
 154  567.3881
 155  639.0716
 156  623.5636
 157  542.5623
 158  467.4527
 159  479.2503
 160  632.5069
 161  845.098
 162  720.3868
 163  649.1655
 164  566.3434
 165  655.1064
 166  670.5005
 167  685.1047
 168  592.3782
 169  638.356
 170  604.8298
 171  605.5658
 172  657.7864
 173  539.306
 174  545.4905
 175  645.0101
 176  655.4029
 177  492.9864
 178  627.4833
 179  744.2891
 180  643.31
 181  408.4847
 182  307.279
 183  351.1356
 184  566.3005
 185  676.9728
 186  567.4307
 187  515.1039
 188  502.7395
 189  484.5887
 190  622.3289
 191  549.883
 192  515.7535
 193  517.0709
 194  488.9751
 195  409.7257
 196  448.7257
 197  493.3242
 198  494.0374
 199  570.1223
 200  631.1216
 201  698.9
 202  421.3035
 203  349.9296
 204  334.2883
 205  362.5013
 206  377.9857
 207  541.8517
 208  504.48
 209  517.7931
 210  509.2632
 211  420.8932
 212  376.6806
 213  388.7693
 214  402.4427
 215  453.2973
 216  566.4692
 217  462.2351
 218  415.2013
 219  481.4814
 220  433.3911
 221  404.3413
 222  439.3072
 223  378.8994
 224  381.1135
 225  398.3272
 226  450.9002
 227  584.7982
 228  592.7118
 229  507.9913
 230  562.3281
 231  495.6385
 232  493.5393
 233  541.0798
 234  674.3167
 235  559.209
 236  530.652
 237  660.1827
 238  401.1198
 239  289.2002
 240  330.8426
 241  440.4737
 242  574.8447
 243  554.8992
 244  468.518
 245  486.9082
 246  424.4836
 247  497.9422
 248  511.8522
 249  479.0095
 250  575.8615
 251  448.0386
 252  446.9731
 253  434.7947
 254  475.9051
 255  488.7148
 256  429.4026
 257  489.9481
 258  546.6018
 259  558.6791
 260  465.5061
 261  578.5488
 262  677.4636
 263  739.4166
 264  703.9604
 265  618.0245
 266  473.9256
 267  498.2076
 268  541.2967
 269  538.6306
 270  577.133
 271  492.6884
 272  343.1007
 273  324.6177
 274  495.6023
 275  631.6715
 276  614.3941
 277  483.5334
 278  296.8654
 279  392.7599
 280  441.0426
 281  599.2261
 282  635.0147
 283  755.0209
 284  655.5897
 285  594.0218
 286  692.3465
 287  626.2955
 288  522.752
 289  550.7793
 290  643.0861
 291  507.9605
 292  432.384
 293  541.0103
 294  526.7719
 295  526.8208
 296  548.4611
 297  580.0432
 298  539.1127
 299  595.5908
 300  642.2824
 301  565.0432
 302  525.7413
 303  551.0837
 304  533.0612
 305  416.2739
 306  448.4033
 307  567.639
 308  583.3353
 309  624.3079
 310  401.2428
 311  510.9396
 312  592.9897
 313  677.4896
 314  606.0887
 315  453.2178
 316  593.8301
 317  566.5389
 318  543.0248
 319  523.3501
 320  542.5601
 321  440.4226
 322  337.219
 323  306.7055
 324  427.6999
 325  538.6276
 326  447.9488
 327  555.3379
 328  597.8473
 329  529.1949
 330  484.2775
 331  556.3848
 332  631.8834
 333  561.47
 334  504.5992
 335  404.6278
 336  435.94
 337  433.4174
 338  440.5908
 339  439.6102
 340  312.1163
 341  346.5307
 342  398.1898
 343  489.9901
 344  450.854
 345  484.1051
 346  526.5936
 347  410.6325
 348  413.1764
 349  509.7382
 350  575.8951
 351  365.6979
 352  376.0096
 353  389.6646
 354  425.3488
 355  412.8906
 356  364.3735
 357  422.3571
 358  521.7174
 359  518.2787
 360  306.929
 361  397.3614
 362  411.2995
 363  478.6879
 364  380.6262
 365  428.6082
 366  571.7636
 367  471.0897
 368  431.093
 369  413.5327
 370  544.8127
 371  614.3312
 372  483.8597
 373  530.3924
 374  551.6475
 375  563.289
 376  462.9828
 377  504.7296
 378  555.7626
 379  567.8666
 380  605.6108
 381  599.3276
 382  596.1377
 383  557.8103
 384  505.8612
 385  505.2735
 386  452.2089
 387  454.2997
 388  478.2136
 389  420.0645
 390  443.5852
 391  576.1116
 392  571.856
 393  490.7172
 394  514.8564
 395  589.3151
 396  613.7645
 397  590.2678
 398  497.8375
 399  569.5607
 400  504.1614
 401  398.1318
 402  367.1696
 403  442.2137
 404  492.7331
 405  359.0297
 406  424.6566
 407  478.6696
 408  411.2346
 409  264.0974
 410  356.1173
 411  433.6564
 412  497.7426
 413  558.6947
 414  540.8151
 415  506.5221
 416  454.2106
 417  461.5287
 418  397.5194
 419  400.2348
 420  365.4566
 421  401.4088
 422  449.8999
 423  410.0632
 424  436.2328
 425  424.63
 426  501.4127
 427  532.1592
 428  498.9781
 429  543.2018
 430  471.767
 431  462.8399
 432  539.9056
 433  546.3766
 434  475.1819
 435  445.9786
 436  498.6631
 437  445.4146
 438  433.3559
 439  436.4045
 440  434.2612
 441  455.6525
 442  383.9808
 443  440.2111
 444  429.7279
 445  441.2792
 446  418.4823
 447  399.6705
 448  460.0295
 449  435.9026
 450  449.9634
 451  411.4361
 452  407.8753
 453  364.5373
 454  261.0163
 455  219.4605
 456  300.9444
 457  368.7684
 458  306.9146
 459  450.7178
 460  432.1326
 461  475.9361
 462  402.3227
 463  421.6177
 464  348.6371
 465  379.062
 466  515.3253
 467  323.9228
 468  258.8763
 469  246.4437
 470  297.9011
 471  282.536
 472  326.075
 473  411.3157
 474  460.6577
 475  429.8484
 476  494.3504
 477  494.549
 478  485.9366
 479  511.9737
 480  449.3428
 481  483.4819
 482  498.325
 483  462.4361
 484  472.2307
 485  392.2869
 486  340.7127
 487  363.3737
 488  401.0186
 489  532.2599
 490  570.7377
 491  538.0869
 492  515.1774
 493  460.9811
 494  497.0964
 495  498.6871
 496  397.6966
 497  489.0317
 498  525.1212
 499  485.2539
 500  502.4346
 501  492.5562
 502  567.4
 503  530.575
 504  580.468
 505  587.3832
 506  667.2549
 507  672.9667
 508  741.5647
 509  954.4538
 510  1339.558
 511  1391.351
