# Input file       =  1209819896.111669_cleaned.dat
# Candidate        =  PSR_0332+5434
# Telescope        =  AR
# Epoch_topo       =  58246.545313792463
# Epoch_bary       =  N/A
# T_sample         =  0.002
# Data Folded      =  7340032
# Data Avg         =  0.256914210166932
# Data StdDev      =  6.76165212583826 
# Profile Bins     =  1024
# Profile Avg      =  1841.7658496364  
# Profile StdDev   =  572.468799260776 
# Reduced chi-sqr  =  0.660
# Prob(Noise)      <  1   (~0.0 sigma)
# P_topo (ms)      =  714.540119413523  +/- 0.0005
# P'_topo (s/s)    =  -0                +/- 2.64e-10
# P''_topo (s/s^2) =  0                 +/- 1.16e-13
# P_bary (ms)      =  N/A
# P'_bary (s/s)    =  N/A
# P''_bary (s/s^2) =  N/A
# P_orb (s)        =  N/A
# asin(i)/c (s)    =  N/A
# eccentricity     =  N/A
# w (rad)          =  N/A
# T_peri           =  N/A
######################################################
   0  1935.372
   1  1847.698
   2  1814.371
   3  1878.049
   4  1869.735
   5  1907.393
   6  1900.665
   7  2003.582
   8  1948.462
   9  1980.74
  10  1857.375
  11  1853.532
  12  1891.068
  13  1873.11
  14  1837.021
  15  1816.415
  16  1852.196
  17  1789.928
  18  1864.841
  19  2034.985
  20  2129.74
  21  1977.089
  22  1853.802
  23  1642.966
  24  1691.441
  25  1682.448
  26  1896.508
  27  1930.635
  28  1905.999
  29  1944.364
  30  1812.733
  31  1854.887
  32  1838.85
  33  1882.438
  34  1807.514
  35  1493.293
  36  1538.359
  37  1615.447
  38  1629.909
  39  1450.205
  40  1459.431
  41  1674.867
  42  1692.831
  43  1706.493
  44  1777.798
  45  1669.329
  46  1713.683
  47  1807.694
  48  2046.101
  49  2014.78
  50  1908.89
  51  1876.968
  52  1879.265
  53  1915.292
  54  1973.384
  55  2057.625
  56  2052.562
  57  1962.391
  58  2114.565
  59  2147.227
  60  2040.478
  61  1703.268
  62  1698.945
  63  1650.123
  64  1687.536
  65  1682.196
  66  1576.643
  67  1561.776
  68  1686.76
  69  1791.623
  70  1809.532
  71  1787.007
  72  1903.665
  73  2146.15
  74  2125.085
  75  2055.41
  76  2005.649
  77  2059.875
  78  1991.004
  79  1940.576
  80  2087.229
  81  2220.989
  82  2257.934
  83  2223.292
  84  2165.994
  85  2110.077
  86  1992.6
  87  1995.719
  88  1925.118
  89  1939.887
  90  1861.806
  91  1817.676
  92  1806.384
  93  1822.917
  94  1951.78
  95  2014.578
  96  1912.757
  97  1826.077
  98  1823.847
  99  1945.513
 100  1897.938
 101  1822.888
 102  1735.788
 103  1789.324
 104  1697.906
 105  1753.615
 106  1621.734
 107  1502.126
 108  1482.886
 109  1550.926
 110  1664.076
 111  1725.559
 112  1795.125
 113  1836.23
 114  1794.55
 115  1755.858
 116  1761.524
 117  1677.527
 118  1697.038
 119  1709.458
 120  1689.985
 121  1557.57
 122  1578.888
 123  1534.794
 124  1501.01
 125  1368.267
 126  1500.994
 127  1673.681
 128  1762.15
 129  1774.738
 130  1652.019
 131  1646.912
 132  1686.975
 133  1726.391
 134  1706.583
 135  1762.029
 136  1752.762
 137  1678.195
 138  1551.321
 139  1651.415
 140  1669.533
 141  1626.207
 142  1636.228
 143  1693.345
 144  1843.331
 145  1771.656
 146  1639.143
 147  1479.837
 148  1462.95
 149  1475.312
 150  1386.2
 151  1359.831
 152  1413.153
 153  1557.08
 154  1552.324
 155  1560.8
 156  1552.393
 157  1633.809
 158  1767.725
 159  1800.159
 160  1792.869
 161  1611.847
 162  1677.02
 163  1765.641
 164  1742.341
 165  1838.623
 166  1701.859
 167  1660.235
 168  1586.291
 169  1551.8
 170  1531.703
 171  1533.379
 172  1632.858
 173  1683.203
 174  1663.312
 175  1726.142
 176  1813.59
 177  1929.179
 178  1881.505
 179  1796.619
 180  1685.877
 181  1696.53
 182  1733.921
 183  1849.243
 184  1947.824
 185  1885.501
 186  1855
 187  1862.784
 188  1756.03
 189  1659.123
 190  1606.407
 191  1580.001
 192  1467.177
 193  1498.882
 194  1720.213
 195  1881.416
 196  1813.405
 197  1740.848
 198  1763.424
 199  1823.862
 200  1933.062
 201  1918.032
 202  1930.202
 203  1799.4
 204  1823.612
 205  1735.503
 206  1686.661
 207  1658.282
 208  1631.568
 209  1766.124
 210  1885.258
 211  1980.17
 212  2109.906
 213  2192.562
 214  2238.763
 215  2148.534
 216  1980.421
 217  1888.714
 218  1965.753
 219  2014.87
 220  2057.61
 221  2051.433
 222  2042.597
 223  2016.678
 224  1918.405
 225  1951.809
 226  2060.522
 227  2127.456
 228  2160.334
 229  2010.054
 230  1965.661
 231  1858.053
 232  1877.992
 233  1897.275
 234  1873.943
 235  1914.083
 236  1904.912
 237  1904.387
 238  1823.24
 239  1896.837
 240  1937.83
 241  1955.902
 242  1891.872
 243  2008.604
 244  2044.538
 245  2145.924
 246  2124.205
 247  2017.181
 248  1942.709
 249  2008.309
 250  1970.748
 251  1882.429
 252  1786.137
 253  1796.362
 254  1795.553
 255  1845.883
 256  1883.828
 257  1852.583
 258  1736.464
 259  1770.102
 260  1770.723
 261  1863.95
 262  1984.984
 263  1984.969
 264  1894.052
 265  1755.76
 266  1822.375
 267  1852.429
 268  1875.032
 269  1782.148
 270  1830.73
 271  1872.506
 272  1887.091
 273  1875.969
 274  1775.944
 275  1757.636
 276  1684.926
 277  1688.674
 278  1822.118
 279  1758.913
 280  1853.023
 281  1777.294
 282  1783.154
 283  1811.466
 284  1749.492
 285  1673.08
 286  1489.876
 287  1388.554
 288  1338.962
 289  1546.463
 290  1699.436
 291  1747.628
 292  1739.209
 293  1830.215
 294  1765.886
 295  1624.339
 296  1428.421
 297  1348.755
 298  1440.351
 299  1618.841
 300  1664.349
 301  1545.924
 302  1547.37
 303  1648.775
 304  1755.051
 305  1772.229
 306  1738.311
 307  1782.824
 308  1783.647
 309  1922.982
 310  1966.696
 311  1940.056
 312  1851.277
 313  1834.978
 314  1872.025
 315  1811.574
 316  1784.138
 317  1765.232
 318  1709.394
 319  1735.297
 320  1802.494
 321  1888.862
 322  1981.917
 323  2093.641
 324  2071.933
 325  1959.128
 326  1830.397
 327  1890.368
 328  1982.854
 329  2121.372
 330  2201.795
 331  2234.412
 332  2199.625
 333  2007.791
 334  1868.474
 335  1771.715
 336  1911.706
 337  1978.903
 338  2123.146
 339  2050.665
 340  2043.39
 341  2172.392
 342  2218.936
 343  2237.306
 344  2169.288
 345  2129.979
 346  2029.827
 347  1954.751
 348  1854.59
 349  1833.227
 350  1732.273
 351  1632.813
 352  1643.014
 353  1844.481
 354  2027.619
 355  1874.095
 356  1627.592
 357  1523.902
 358  1576.483
 359  1686.146
 360  1717.865
 361  1918.519
 362  1928.479
 363  1834.295
 364  1732.307
 365  1767.347
 366  1912.642
 367  1871.608
 368  1881.134
 369  1794.518
 370  1779.333
 371  1742.881
 372  1675.711
 373  1660.072
 374  1816.851
 375  1955.922
 376  1912.527
 377  1876.612
 378  1845.353
 379  1973.187
 380  1944.82
 381  1993.177
 382  1937.44
 383  1925.455
 384  1855.348
 385  1935.528
 386  1875.65
 387  1850.179
 388  1874.819
 389  2018.218
 390  1983.128
 391  1821.318
 392  1830.937
 393  1949.361
 394  2034.048
 395  2009.683
 396  1956.412
 397  1903.287
 398  1765.063
 399  1812.761
 400  2004.006
 401  2040.587
 402  2077.629
 403  2091.176
 404  2281.777
 405  2184.286
 406  2223.309
 407  2266.451
 408  2297.35
 409  2394.565
 410  2436.856
 411  2500.623
 412  2321.244
 413  2345.864
 414  2456.151
 415  2543.136
 416  2605.168
 417  2418.941
 418  2341.669
 419  2283.358
 420  2428.182
 421  2529.335
 422  2421.488
 423  2259.944
 424  2129.503
 425  2267.513
 426  2488.266
 427  2622.139
 428  2495.489
 429  2346.129
 430  2265.997
 431  2058.626
 432  2042.591
 433  1949.808
 434  2055.632
 435  1992.498
 436  2017.704
 437  2026.29
 438  2092.365
 439  2149.042
 440  1966.335
 441  1936.996
 442  1946.434
 443  2016.669
 444  1995.093
 445  2093.009
 446  2186.24
 447  2270.791
 448  2252.664
 449  2363.449
 450  2387.214
 451  2322.314
 452  2201.694
 453  2132.34
 454  2125.65
 455  1978.992
 456  1884.333
 457  1890.108
 458  1979.737
 459  2137.605
 460  2211.175
 461  2178.031
 462  2123.539
 463  2105.557
 464  2032.769
 465  1930.854
 466  1844.494
 467  1958.634
 468  1930.204
 469  1967.781
 470  2033.466
 471  2122.172
 472  2155.563
 473  2039.837
 474  2116.584
 475  2220.715
 476  2258.018
 477  2263.202
 478  2289.212
 479  2270.827
 480  2251.235
 481  2125.008
 482  2084.666
 483  2060.965
 484  2093.311
 485  2172.554
 486  2158.851
 487  2200.389
 488  2172.673
 489  2096.37
 490  2098.503
 491  2093.536
 492  2116.994
 493  2098.454
 494  2152.378
 495  2164.545
 496  2080.795
 497  2130.237
 498  2212.536
 499  2268.669
 500  2187.807
 501  2045.962
 502  1953.557
 503  1917.198
 504  1960.903
 505  2065.542
 506  2051.564
 507  2164.395
 508  2079.011
 509  2071.07
 510  2057.43
 511  2197.318
 512  2240.882
 513  2233.023
 514  2207.445
 515  2086.065
 516  1894.53
 517  1609.701
 518  1596.416
 519  1675.699
 520  1821.504
 521  1888.803
 522  1952.422
 523  1909.335
 524  1858.819
 525  1974.461
 526  1960.952
 527  1846.018
 528  1778.682
 529  1803.636
 530  1664.545
 531  1624.938
 532  1599.615
 533  1597.014
 534  1692.264
 535  1626.77
 536  1706.556
 537  1629.333
 538  1644.11
 539  1684.407
 540  1785.757
 541  1977.237
 542  2095.066
 543  2036.467
 544  1894.076
 545  1827.701
 546  1865.879
 547  1723.592
 548  1660.905
 549  1564.116
 550  1703.006
 551  1591.741
 552  1617.566
 553  1586.076
 554  1600.219
 555  1614.724
 556  1522.248
 557  1561.541
 558  1572.8
 559  1604.082
 560  1628.29
 561  1522.996
 562  1512.647
 563  1412.471
 564  1394.063
 565  1383.94
 566  1525.257
 567  1591.763
 568  1540.294
 569  1489.089
 570  1403.62
 571  1416.83
 572  1424.588
 573  1414.373
 574  1420.427
 575  1466.852
 576  1503.737
 577  1477.072
 578  1560.514
 579  1483.698
 580  1674.532
 581  1803.442
 582  2025.623
 583  2141.02
 584  2124.638
 585  1933.823
 586  1782.907
 587  1795.046
 588  1915.013
 589  1975.021
 590  2010.814
 591  1986.178
 592  2109.636
 593  2050.667
 594  2236.834
 595  2318.386
 596  2382.615
 597  2531.775
 598  2557.906
 599  2713.678
 600  2659.083
 601  2601.701
 602  2600.689
 603  2475.062
 604  2348.952
 605  2135.932
 606  2020.601
 607  1802.282
 608  1706.857
 609  1673.487
 610  1801.707
 611  1834.861
 612  1831.849
 613  1656.64
 614  1517.794
 615  1562.621
 616  1624.6
 617  1645.648
 618  1615.152
 619  1623.393
 620  1654.972
 621  1806.107
 622  1841.383
 623  1893.937
 624  2080.646
 625  2001.351
 626  1864.558
 627  1839.017
 628  2006.674
 629  2081.953
 630  2122.99
 631  1917.978
 632  1752.449
 633  1746.352
 634  1723.992
 635  1686.169
 636  1641.442
 637  1617.395
 638  1631.737
 639  1616.897
 640  1675.966
 641  1638.19
 642  1707.911
 643  1682.289
 644  1725.021
 645  1645.447
 646  1588.455
 647  1508.163
 648  1556.246
 649  1710.779
 650  1789.871
 651  1820.48
 652  1657.494
 653  1680.28
 654  1664.057
 655  1655.218
 656  1693.671
 657  1758.407
 658  1765.632
 659  1638.835
 660  1596.707
 661  1719.658
 662  1797.023
 663  1759.903
 664  1782.383
 665  1748.366
 666  1695.636
 667  1716.308
 668  1823.989
 669  1864.201
 670  1850.099
 671  1827.634
 672  1760.033
 673  1661.556
 674  1685.73
 675  1872.795
 676  1966.021
 677  2049.521
 678  2156.647
 679  2196.376
 680  2051.513
 681  1885.542
 682  1960.086
 683  2057.606
 684  2034.666
 685  1918.157
 686  1746.904
 687  1809.35
 688  1897.277
 689  2012.215
 690  1958.249
 691  2077.588
 692  2089.422
 693  2028.011
 694  2091.216
 695  2104.546
 696  2046.729
 697  1936.794
 698  1939.594
 699  1931.123
 700  1897.585
 701  1798.194
 702  1960.813
 703  1998.007
 704  1986.703
 705  1836.749
 706  1863.421
 707  1904.969
 708  1867.809
 709  1879.992
 710  1916.661
 711  1883.628
 712  1900.785
 713  1849.883
 714  1968.677
 715  2014.285
 716  1988.517
 717  1856.85
 718  1753.671
 719  1715.919
 720  1656.297
 721  1654.699
 722  1668.885
 723  1733.503
 724  1704.13
 725  1686.167
 726  1563.843
 727  1547.062
 728  1512.173
 729  1506.715
 730  1428.5
 731  1417.134
 732  1422.83
 733  1482.061
 734  1452.56
 735  1459.26
 736  1511.797
 737  1463.635
 738  1451.407
 739  1335.309
 740  1306.257
 741  1336.477
 742  1442.849
 743  1510.628
 744  1500.879
 745  1350.499
 746  1346.833
 747  1274.202
 748  1545.922
 749  1493.352
 750  1481.822
 751  1338.066
 752  1370.632
 753  1305.804
 754  1294.662
 755  1277.111
 756  1204.359
 757  1249.901
 758  1157.496
 759  1273.21
 760  1368.577
 761  1549.701
 762  1586.958
 763  1455.095
 764  1379.989
 765  1436.959
 766  1513.411
 767  1601.635
 768  1580.968
 769  1592.451
 770  1585.186
 771  1603.445
 772  1640.454
 773  1624.46
 774  1476.354
 775  1381.476
 776  1282.939
 777  1331.851
 778  1293.966
 779  1377.269
 780  1488.902
 781  1521.516
 782  1554.921
 783  1643.111
 784  1724.709
 785  1701.261
 786  1546.112
 787  1396.99
 788  1488.705
 789  1571.704
 790  1508.222
 791  1398.125
 792  1288.902
 793  1290.748
 794  1237.158
 795  1319.443
 796  1244.335
 797  1196.546
 798  1209.122
 799  1418.833
 800  1534.897
 801  1679.947
 802  1774.735
 803  1771.823
 804  1749.099
 805  1654.722
 806  1533.134
 807  1645.097
 808  1674.516
 809  1735.74
 810  1720.327
 811  1727.364
 812  1755.026
 813  1861.438
 814  1930.649
 815  1958.461
 816  1939.075
 817  1868.911
 818  1850.159
 819  1828.808
 820  1852.485
 821  1882.185
 822  1929.522
 823  1857.761
 824  1843.98
 825  1959.912
 826  2077.632
 827  2054.228
 828  1920.383
 829  1882.683
 830  1931.961
 831  2121.166
 832  2015.336
 833  1869.618
 834  1846.51
 835  1819.842
 836  1809.421
 837  1807.322
 838  1850.155
 839  1894.777
 840  1965.492
 841  2050.094
 842  2076.029
 843  2098.058
 844  2118.836
 845  1884.867
 846  1819.138
 847  1816.685
 848  1881.246
 849  1841.667
 850  1819.284
 851  1770.883
 852  1833.26
 853  1785.609
 854  1686.027
 855  1716.572
 856  1763.684
 857  1734.467
 858  1628.318
 859  1587.659
 860  1690.255
 861  1705.176
 862  1731.57
 863  1532.579
 864  1442.676
 865  1469.766
 866  1524.211
 867  1618.945
 868  1580.926
 869  1571.152
 870  1689.072
 871  1608.9
 872  1703.617
 873  1584.618
 874  1554.058
 875  1427.711
 876  1472.565
 877  1417.926
 878  1469.345
 879  1307.774
 880  1422.662
 881  1399.545
 882  1517.129
 883  1599.54
 884  1645.18
 885  1747.936
 886  1741.783
 887  1745.09
 888  1738.933
 889  1663.523
 890  1652.994
 891  1732.165
 892  1718.196
 893  1702.24
 894  1581.541
 895  1544.095
 896  1553.081
 897  1501.99
 898  1435.385
 899  1420.066
 900  1458.395
 901  1405.019
 902  1434.193
 903  1505.023
 904  1662.17
 905  1668.859
 906  1613.609
 907  1524.375
 908  1570.33
 909  1694.841
 910  1813.09
 911  1901.719
 912  1881.4
 913  1970.894
 914  1969.834
 915  2115.18
 916  2022.508
 917  1990.084
 918  1996.166
 919  2011.185
 920  2078.458
 921  1977.418
 922  2031.631
 923  2178.043
 924  2329.176
 925  2352.119
 926  2245.28
 927  2177.431
 928  2032.284
 929  2040.806
 930  2081.049
 931  2068.082
 932  2140.594
 933  2153.907
 934  2262.056
 935  2314.216
 936  2238.7
 937  2114.608
 938  2086.164
 939  2024.419
 940  2041.905
 941  2019.44
 942  1999.923
 943  1979.67
 944  1885.734
 945  1841.943
 946  1848.955
 947  1944.555
 948  2064.349
 949  1836.64
 950  1664.906
 951  1846.181
 952  1937.444
 953  2158.226
 954  2108.109
 955  2105.394
 956  2065.588
 957  1911.604
 958  1923.044
 959  1825.054
 960  1816.205
 961  1943.332
 962  1876.149
 963  1907.339
 964  1919.052
 965  2015.99
 966  1882.767
 967  1912.918
 968  1953.46
 969  1894.152
 970  1707.006
 971  1691.641
 972  1761.578
 973  1870.576
 974  1722.062
 975  1650.456
 976  1719.622
 977  1831.434
 978  1869.875
 979  1853.854
 980  1849.655
 981  1878.636
 982  1794.646
 983  1805.099
 984  1745.357
 985  1755.185
 986  1710.718
 987  1764.016
 988  1736.439
 989  1758.458
 990  1802.815
 991  1878.749
 992  2024.681
 993  2064.421
 994  2126.617
 995  2111.663
 996  2112.784
 997  2110.038
 998  1954.809
 999  1933.004
1000  1881.991
1001  1943.514
1002  1870.709
1003  1946.577
1004  2028.423
1005  2233.526
1006  2358.899
1007  2474.248
1008  2534.661
1009  2528.707
1010  2544.202
1011  2581.831
1012  2554.964
1013  2536.664
1014  2377.778
1015  2268.179
1016  2242.368
1017  2217.746
1018  2282.277
1019  2215.591
1020  2116.546
1021  2048.725
1022  2063.924
1023  2035.544
