# Input file       =  1209891182.120269_cleaned.dat
# Candidate        =  PSR_0332+5434
# Telescope        =  AR
# Epoch_topo       =  58247.370383336449
# Epoch_bary       =  N/A
# T_sample         =  0.002
# Data Folded      =  7340032
# Data Avg         =  0.0764907244847506
# Data StdDev      =  1.00012384413869 
# Profile Bins     =  512
# Profile Avg      =  1097.11858925755 
# Profile StdDev   =  119.747864611529 
# Reduced chi-sqr  =  1.194
# Prob(Noise)      <  0.00161   (~2.9 sigma)
# P_topo (ms)      =  714.539005865675  +/- 0.000583
# P'_topo (s/s)    =  -0                +/- 3.08e-10
# P''_topo (s/s^2) =  0                 +/- 1.36e-13
# P_bary (ms)      =  N/A
# P'_bary (s/s)    =  N/A
# P''_bary (s/s^2) =  N/A
# P_orb (s)        =  N/A
# asin(i)/c (s)    =  N/A
# eccentricity     =  N/A
# w (rad)          =  N/A
# T_peri           =  N/A
######################################################
   0  1002.661
   1  989.3355
   2  969.3926
   3  1009.137
   4  1078.297
   5  1090.186
   6  1002.144
   7  1008.286
   8  1052.234
   9  1011.681
  10  995.4554
  11  1048.148
  12  1038.016
  13  1048.078
  14  1081.593
  15  1014.259
  16  1027.009
  17  1114.495
  18  1038.075
  19  966.397
  20  1001
  21  1036.162
  22  1008.044
  23  1067.45
  24  1039.88
  25  957.1248
  26  985.6794
  27  1012.425
  28  973.2994
  29  1086.346
  30  1101.394
  31  1045.36
  32  1157.023
  33  1162.639
  34  1093.363
  35  1094.628
  36  1091.752
  37  1104.452
  38  1115.385
  39  1110.737
  40  1139.059
  41  1088.817
  42  1078.083
  43  1100.499
  44  1083.138
  45  1104.318
  46  1092.351
  47  1207.578
  48  1185.366
  49  1194.911
  50  1257.974
  51  1209.998
  52  1177.862
  53  1097.025
  54  1112.377
  55  1178.864
  56  1162.222
  57  1192.526
  58  1195.226
  59  1164.74
  60  1114.078
  61  1091.881
  62  1066.526
  63  1103.214
  64  1133.175
  65  1043.785
  66  994.3284
  67  1057.999
  68  1147.345
  69  1190.27
  70  1086.867
  71  1068.56
  72  1111.655
  73  1054.762
  74  1092.598
  75  1137.42
  76  1167.752
  77  1190.98
  78  1214.487
  79  1159.475
  80  1053.722
  81  1081.355
  82  1088.216
  83  1067.673
  84  1053.699
  85  1127.974
  86  1194.515
  87  1073.673
  88  931.3085
  89  968.6058
  90  1063.073
  91  1088.295
  92  1081.551
  93  1069.446
  94  964.2723
  95  1010.944
  96  1088.801
  97  1039.528
  98  1080.224
  99  1100.097
 100  1098.224
 101  1120.022
 102  1109.687
 103  1034.334
 104  1084.326
 105  1083.245
 106  1096.114
 107  1027.47
 108  1130.973
 109  1040.713
 110  1044.945
 111  1104.537
 112  1162.699
 113  1101.678
 114  1143.906
 115  1123.456
 116  1082.428
 117  1103.097
 118  1106.877
 119  1047.033
 120  986.8765
 121  1106.598
 122  1194.08
 123  1150.845
 124  1193.747
 125  1104.187
 126  1085.977
 127  1108.75
 128  1125.206
 129  1108.895
 130  1101.035
 131  1177.252
 132  1079.965
 133  1066.263
 134  1054.18
 135  1112.077
 136  1054.578
 137  1108.979
 138  1143.885
 139  1159.728
 140  1104.467
 141  1146.3
 142  1234.9
 143  1294.666
 144  1323.269
 145  1400.339
 146  1565.117
 147  1664.505
 148  1683.446
 149  1489.57
 150  1298.996
 151  1192.299
 152  1121.106
 153  1122.44
 154  981.6155
 155  955.796
 156  1006.683
 157  988.532
 158  1049.479
 159  1062.082
 160  1063.771
 161  1029.21
 162  1035.452
 163  997.4798
 164  1035.48
 165  1010.483
 166  1009.888
 167  1043.548
 168  1097.788
 169  1122.302
 170  1059.293
 171  933.2562
 172  899.1631
 173  943.9756
 174  1020.164
 175  1061.479
 176  1136.747
 177  1145.469
 178  1056.798
 179  1076.636
 180  1005.415
 181  1081.279
 182  1060.99
 183  1141.479
 184  1091.944
 185  1039.717
 186  1110.627
 187  1113.901
 188  1148.048
 189  1173.874
 190  1241.278
 191  1182.979
 192  1142.464
 193  1117.94
 194  1077.625
 195  1123.807
 196  1150.504
 197  1155.611
 198  1088.246
 199  1135.988
 200  1188.87
 201  1210.989
 202  1164.707
 203  1128.763
 204  1103.385
 205  1083.948
 206  1148.201
 207  1128.118
 208  1099.486
 209  1069.879
 210  1093.404
 211  1114.755
 212  1185.311
 213  1144.219
 214  1072.019
 215  1126.949
 216  1208.15
 217  1132.043
 218  1084.577
 219  1145.551
 220  1196.842
 221  1204.759
 222  1097.74
 223  1115.479
 224  1162.221
 225  1201.898
 226  1174.671
 227  1121.547
 228  1136.403
 229  1069.428
 230  1124.584
 231  1126.679
 232  1122.97
 233  1126.852
 234  1151.831
 235  1088.069
 236  1101.927
 237  1169.688
 238  1168.823
 239  1135.178
 240  1078.647
 241  1134.961
 242  1058.615
 243  1114.441
 244  1123.406
 245  1182.571
 246  1138.226
 247  1128.551
 248  1085.867
 249  1017.119
 250  1090.12
 251  1025.21
 252  1098.093
 253  1115.107
 254  1099.426
 255  1103.397
 256  1106.41
 257  1134.504
 258  1095.227
 259  1094.668
 260  1182.392
 261  1227.276
 262  1221.366
 263  1192.641
 264  1169.49
 265  1113.459
 266  1103.837
 267  1081.669
 268  1058.817
 269  1086.786
 270  1131.128
 271  1138.048
 272  1126.851
 273  1137.367
 274  1121.844
 275  1060.621
 276  990.6884
 277  1032.56
 278  1006.348
 279  1011.876
 280  1041.991
 281  1118.839
 282  1069.978
 283  1037.592
 284  956.5795
 285  1062.548
 286  1107.644
 287  1104.331
 288  981.6122
 289  985.1299
 290  1056.699
 291  1076.704
 292  1023.603
 293  993.2375
 294  1065.159
 295  1082.963
 296  1074.706
 297  1042.095
 298  1025.742
 299  1070.826
 300  1063.827
 301  1039.538
 302  1093.012
 303  1071.145
 304  1071.031
 305  1019.103
 306  1030.321
 307  1172.608
 308  1191.376
 309  1146.016
 310  1156.64
 311  1183.575
 312  1188.792
 313  1262.9
 314  1209.438
 315  1203.86
 316  1185.13
 317  1214.44
 318  1217.273
 319  1204.685
 320  1165.402
 321  1183.353
 322  1193.794
 323  1200.829
 324  1201.048
 325  1244.018
 326  1274.865
 327  1331.798
 328  1301.592
 329  1256.536
 330  1248.264
 331  1264.507
 332  1241.233
 333  1230.999
 334  1251.654
 335  1245.156
 336  1240.732
 337  1239.796
 338  1175.84
 339  1257.784
 340  1220.539
 341  1191.232
 342  1236.381
 343  1213.692
 344  1234.572
 345  1199.886
 346  1119.68
 347  1205.597
 348  1336.097
 349  1310.378
 350  1198.414
 351  1139.534
 352  1174.881
 353  1210.86
 354  1228.79
 355  1280.289
 356  1238.501
 357  1174.503
 358  1204.331
 359  1247.446
 360  1134.236
 361  1182.818
 362  1115.542
 363  1163.629
 364  1227.804
 365  1175.841
 366  1150.373
 367  1106.224
 368  1089.853
 369  1178.247
 370  1239.646
 371  1171.762
 372  1049.135
 373  1181.189
 374  1182.496
 375  1168.995
 376  1133.793
 377  1141.158
 378  1243.792
 379  1141.464
 380  1089.571
 381  1119.646
 382  1097.429
 383  1115.141
 384  1126.801
 385  1072.259
 386  1101.77
 387  1150.129
 388  1142.42
 389  1033.446
 390  964.5575
 391  1014.085
 392  1054.997
 393  1014.474
 394  1072.966
 395  1109.739
 396  1086.95
 397  995.5589
 398  1042.676
 399  1095.619
 400  1048.1
 401  1078.336
 402  1105.213
 403  1041.254
 404  1044.51
 405  1081.828
 406  1111.985
 407  1086.345
 408  1059.257
 409  998.1302
 410  976.3014
 411  1042.374
 412  1021.516
 413  938.2853
 414  979.5723
 415  978.1751
 416  977.8946
 417  1011.336
 418  1069.151
 419  1063.576
 420  1018.129
 421  975.7271
 422  970.1866
 423  1047.891
 424  1114.707
 425  1082.7
 426  967.225
 427  1006.304
 428  976.2146
 429  1033.364
 430  1010.015
 431  984.7148
 432  986.5532
 433  979.6763
 434  922.5337
 435  919.4183
 436  949.0269
 437  956.1639
 438  962.8563
 439  974.2372
 440  1035.681
 441  1035.372
 442  1067.844
 443  1047.891
 444  1004.855
 445  1006.956
 446  1019.764
 447  966.7651
 448  915.6083
 449  941.2423
 450  918.1616
 451  914.0723
 452  950.0325
 453  953.4873
 454  874.1908
 455  886.9583
 456  917.3087
 457  880.8943
 458  886.983
 459  951.6922
 460  960.691
 461  982.3177
 462  998.9966
 463  1048.174
 464  1040.908
 465  1015.072
 466  1044.188
 467  1036.209
 468  1107.121
 469  1095.912
 470  1052.837
 471  1066.846
 472  998.4349
 473  976.8618
 474  1014.704
 475  996.6292
 476  1001.785
 477  1028.44
 478  1079.976
 479  1080.532
 480  1044.182
 481  1018.193
 482  1026.414
 483  1039.516
 484  1156.187
 485  1115.948
 486  1112.683
 487  1065.216
 488  1108.844
 489  1041.739
 490  973.0831
 491  1108.699
 492  1052.075
 493  1071.888
 494  1072.674
 495  1043.59
 496  991.2274
 497  967.1955
 498  1076.272
 499  1049.794
 500  1014.655
 501  1032.593
 502  1076.337
 503  1081.11
 504  1042.632
 505  995.1501
 506  1152.948
 507  1155.295
 508  1092.567
 509  1004.135
 510  989.0638
 511  1030.705
