# Input file       =  1209445701.104754_cleaned.dat
# Candidate        =  PSR_0332+5434
# Telescope        =  AR
# Epoch_topo       =  58242.214353064279
# Epoch_bary       =  N/A
# T_sample         =  0.002
# Data Folded      =  7143424
# Data Avg         =  0.352059090700121
# Data StdDev      =  6.68066477452682 
# Profile Bins     =  1024
# Profile Avg      =  2455.97434196305 
# Profile StdDev   =  557.985503434734 
# Reduced chi-sqr  =  1.180
# Prob(Noise)      <  5.47e-05   (~3.9 sigma)
# P_topo (ms)      =  714.543804123609  +/- 2.29e-05
# P'_topo (s/s)    =  -0                +/- 1.24e-11
# P''_topo (s/s^2) =  0                 +/- 5.64e-15
# P_bary (ms)      =  N/A
# P'_bary (s/s)    =  N/A
# P''_bary (s/s^2) =  N/A
# P_orb (s)        =  N/A
# asin(i)/c (s)    =  N/A
# eccentricity     =  N/A
# w (rad)          =  N/A
# T_peri           =  N/A
######################################################
   0  2708.263
   1  2538.469
   2  2699.774
   3  3022.345
   4  2955.278
   5  3170.051
   6  3235.13
   7  3239.551
   8  2891.898
   9  2675.333
  10  2609.693
  11  2576.38
  12  2491.886
  13  2718.181
  14  2401.615
  15  2036.885
  16  1761.886
  17  1821.078
  18  1775.101
  19  1650.001
  20  2257.41
  21  2613.866
  22  2652.72
  23  2780.096
  24  2730.451
  25  2898.445
  26  2723.413
  27  2639.973
  28  2850.647
  29  2609.087
  30  2659.722
  31  2554.907
  32  2449.246
  33  2366.873
  34  2143.458
  35  2399.743
  36  2589.272
  37  2627.417
  38  3076.303
  39  3118.743
  40  2966.08
  41  2665.947
  42  2591.988
  43  2576.537
  44  2189.248
  45  2316.687
  46  2443.141
  47  2376.619
  48  2206.296
  49  1915.699
  50  1707.109
  51  1411.659
  52  1626.455
  53  2109.728
  54  2156.804
  55  2463.771
  56  2602.594
  57  2536.749
  58  2478.004
  59  2388.915
  60  2749.628
  61  2833.442
  62  2789.446
  63  2888.454
  64  2751.171
  65  2580.99
  66  2206.609
  67  2123.692
  68  2341.538
  69  2344.452
  70  2737.068
  71  3159.465
  72  2877.826
  73  2605.472
  74  2329.424
  75  2379.879
  76  2186.851
  77  2226.324
  78  2598.887
  79  2512.643
  80  2341.489
  81  2250.56
  82  2244.062
  83  1994.993
  84  1767.621
  85  1947.113
  86  1879.061
  87  1884.957
  88  2334.117
  89  2601.418
  90  2634.572
  91  2467.479
  92  2440.232
  93  2769.583
  94  2673.838
  95  2809.033
  96  2961.386
  97  2726.874
  98  2531.318
  99  2128.191
 100  2131.295
 101  2260
 102  2395.662
 103  2990.126
 104  3159.68
 105  3063.321
 106  2847.738
 107  2733.625
 108  2558.181
 109  2227.607
 110  2278.477
 111  2495.524
 112  2450.261
 113  2493.588
 114  2461.345
 115  2151.049
 116  1853.082
 117  1870.948
 118  2178.912
 119  2117.177
 120  2209.034
 121  2509.03
 122  2409.02
 123  2225.705
 124  1951.111
 125  2155.524
 126  2486.2
 127  2568.675
 128  2789.45
 129  2945.263
 130  2945.683
 131  2763.968
 132  2643.42
 133  2617.712
 134  2783.706
 135  2894.997
 136  3299.563
 137  3173.791
 138  3110.259
 139  2937.65
 140  2745.392
 141  2395.99
 142  2134.16
 143  2330.529
 144  2425.796
 145  2239.384
 146  2359.452
 147  2199.078
 148  2079.243
 149  1913.376
 150  2255.041
 151  2349.191
 152  2218.611
 153  2469.993
 154  2554.538
 155  2690.54
 156  2654.383
 157  2518.368
 158  2731.844
 159  2527.155
 160  2488.715
 161  2584.922
 162  2588.72
 163  2554.19
 164  2312.791
 165  1993.794
 166  2187.501
 167  1992.094
 168  2508.587
 169  2782.141
 170  2905.617
 171  2918.959
 172  2945.152
 173  2870.748
 174  2555.765
 175  2385.17
 176  2648.476
 177  2582.23
 178  2557.33
 179  2441.428
 180  2152.267
 181  1858.752
 182  1757.226
 183  1965.795
 184  1859.496
 185  1896.8
 186  2445.254
 187  2655.791
 188  2666.029
 189  2436.123
 190  2411.09
 191  2524.161
 192  2396.259
 193  2571.642
 194  2802.213
 195  2780.907
 196  2700.101
 197  2524.347
 198  2535.637
 199  2392.856
 200  2252.015
 201  2593.533
 202  2728.49
 203  2683.505
 204  2780.963
 205  2566.45
 206  2324.722
 207  2144.401
 208  2443.047
 209  2470.602
 210  2279.286
 211  2550.705
 212  2536.655
 213  2303.172
 214  2013.255
 215  1906.116
 216  1782.574
 217  1605.184
 218  2002.661
 219  2375.824
 220  2468.797
 221  2468.361
 222  2394.327
 223  2478.524
 224  2340.72
 225  2343.373
 226  2778.644
 227  2858.781
 228  2911.596
 229  2710.431
 230  2470.506
 231  2394.543
 232  2284.95
 233  2462.752
 234  2626.644
 235  2513.666
 236  2870.647
 237  2959.677
 238  2668.035
 239  2226.037
 240  2149.784
 241  2358.463
 242  2332.766
 243  2453.59
 244  2754.412
 245  2590.048
 246  2311.814
 247  1934.689
 248  1686.774
 249  1450.588
 250  1488.878
 251  2088.969
 252  2320.318
 253  2288.327
 254  2410.637
 255  2434.447
 256  2377.035
 257  2211.009
 258  2513.221
 259  2768.263
 260  2661.029
 261  2624.767
 262  2663.022
 263  2528.379
 264  2426.753
 265  2168.697
 266  2435.425
 267  2442.79
 268  2629.793
 269  3127
 270  3143.356
 271  2817.428
 272  2397.776
 273  2444.242
 274  2391.68
 275  2348.275
 276  2665.622
 277  2687.6
 278  2430.458
 279  2380.869
 280  2431.143
 281  2310.991
 282  2014.431
 283  2179.225
 284  2204.755
 285  2175.914
 286  2357.387
 287  2559.896
 288  2424.439
 289  2292.876
 290  2248.043
 291  2613.013
 292  2636.111
 293  2642.139
 294  2795.972
 295  2755.123
 296  2697.021
 297  2377.994
 298  2153.306
 299  2268.887
 300  2210.437
 301  2765.615
 302  3063.639
 303  2966.232
 304  2761.426
 305  2602.702
 306  2457.612
 307  2269.929
 308  2361.849
 309  2581.179
 310  2598.822
 311  2442.246
 312  2481.358
 313  2176.885
 314  2052.322
 315  1852.843
 316  2154.017
 317  2247.385
 318  2325.146
 319  2725.905
 320  2620.002
 321  2651.171
 322  2474.429
 323  2436.799
 324  2491.708
 325  2480.483
 326  2664.287
 327  2939.941
 328  2837.347
 329  2776.326
 330  2369.908
 331  2482.305
 332  2703.728
 333  2635.728
 334  2760.585
 335  2750.174
 336  2644.507
 337  2766.635
 338  2572.545
 339  2426.58
 340  2077.218
 341  2322.757
 342  2441.773
 343  2146.219
 344  2193.383
 345  2181.917
 346  2085.61
 347  1627.913
 348  1643.308
 349  1826.726
 350  1870.955
 351  2127.489
 352  2496.393
 353  2589.121
 354  2615.412
 355  2334.521
 356  2365.23
 357  2218.287
 358  2081.851
 359  2357.734
 360  2645.866
 361  2735.545
 362  2508.622
 363  2299.951
 364  2516.777
 365  2309.556
 366  2628.198
 367  2964.894
 368  3021.651
 369  3070.345
 370  3019.483
 371  2800.563
 372  2385.729
 373  2204.687
 374  2442.702
 375  2422.069
 376  2338.361
 377  2425.954
 378  2194.719
 379  1917.661
 380  1655.916
 381  1906.599
 382  1911.019
 383  1733.884
 384  2134.853
 385  2402.228
 386  2342.136
 387  2288.617
 388  2186.76
 389  2629.363
 390  2470.532
 391  2653.142
 392  2827.834
 393  2829.536
 394  2766.704
 395  2677.953
 396  2565.155
 397  2427.567
 398  1995.674
 399  2356.219
 400  2540.052
 401  2605.446
 402  2722.435
 403  2652.494
 404  2386.532
 405  2051.668
 406  2258.187
 407  2481.3
 408  2346.54
 409  2454.898
 410  2622.223
 411  2425.315
 412  2081.198
 413  1915.175
 414  1845.597
 415  1643.78
 416  1750.763
 417  2278.476
 418  2322.438
 419  2418.689
 420  2487.428
 421  2610.998
 422  2632.36
 423  2223.977
 424  2540.976
 425  2691.183
 426  2680.579
 427  2598.855
 428  2502.217
 429  2533.712
 430  2135.49
 431  2188.972
 432  2489.965
 433  2556.297
 434  2897.484
 435  3185.17
 436  2925.758
 437  2662.08
 438  2371.285
 439  2503.607
 440  2247.166
 441  2242.228
 442  2546.16
 443  2487.396
 444  2170.939
 445  2061.588
 446  2075.018
 447  1865.719
 448  1496.554
 449  1975.426
 450  2119.504
 451  2297.224
 452  2367.799
 453  2500.273
 454  2583.868
 455  2367.689
 456  2468.813
 457  2933.794
 458  2947.559
 459  3035.959
 460  2944.132
 461  2816.91
 462  2524.497
 463  2143.358
 464  2085.601
 465  2194.2
 466  2331.266
 467  2790.806
 468  2972.037
 469  2880.1
 470  2687.033
 471  2569.002
 472  2580.14
 473  2386.641
 474  2541.344
 475  2652.943
 476  2575.425
 477  2394.162
 478  2332.607
 479  2142.97
 480  1813.555
 481  1729.459
 482  2027.903
 483  2061.459
 484  2233.172
 485  2448.253
 486  2439.676
 487  2429.974
 488  2172.094
 489  2392.309
 490  2488.603
 491  2487.851
 492  2612.295
 493  2734.234
 494  2624.711
 495  2379.576
 496  2266.111
 497  2428.457
 498  2497.263
 499  2752.616
 500  3066.083
 501  2824.527
 502  2517.498
 503  2390.331
 504  2443.343
 505  2132.401
 506  1925.45
 507  2230.709
 508  2308.253
 509  2078.3
 510  2141.29
 511  2117.109
 512  1986.216
 513  1792.899
 514  2067.389
 515  2282.752
 516  2294.031
 517  2492.952
 518  2487.796
 519  2471.508
 520  2279.22
 521  2097.161
 522  2410.682
 523  2311.799
 524  2179.71
 525  2335.677
 526  2379.232
 527  2444.314
 528  2196.949
 529  2174.409
 530  2394.767
 531  2241.671
 532  2529.503
 533  2793.415
 534  2835.045
 535  2958.426
 536  2778.051
 537  2553.503
 538  2075.097
 539  2108.129
 540  2425.841
 541  2315.76
 542  2245.482
 543  2235.411
 544  2030.599
 545  1753.048
 546  1639.141
 547  2088.332
 548  2120.47
 549  2105.616
 550  2387.838
 551  2466.844
 552  2504.354
 553  2357.365
 554  2524.135
 555  2678.351
 556  2357.002
 557  2643.142
 558  2994.826
 559  3032.674
 560  2584.005
 561  2246.396
 562  2308.142
 563  2353.417
 564  2457.021
 565  2914.391
 566  2862.745
 567  2724.155
 568  2569.4
 569  2554.805
 570  2193.395
 571  1957.692
 572  2314.413
 573  2390.919
 574  2284.591
 575  2465.044
 576  2559.595
 577  2210.144
 578  1883.268
 579  1801.916
 580  1922.449
 581  1860.796
 582  2288.368
 583  2581.398
 584  2525.49
 585  2398.354
 586  2484.265
 587  2819.345
 588  2735.254
 589  2624.184
 590  2920.635
 591  3078.776
 592  2954.306
 593  2689.839
 594  2518.369
 595  2519.127
 596  2464.839
 597  2876.925
 598  3359.932
 599  3475.698
 600  3727.683
 601  3977.068
 602  3713.698
 603  3423.798
 604  3251.423
 605  3395.738
 606  3101.218
 607  2858.329
 608  2794.579
 609  2505.445
 610  2049.139
 611  1818.466
 612  1936.794
 613  1812.681
 614  1768.804
 615  2233.196
 616  2511.369
 617  2420.836
 618  2486.098
 619  2620.739
 620  2679.559
 621  2331.467
 622  2495.66
 623  2770.732
 624  2786.268
 625  2717.212
 626  2673.628
 627  2478.104
 628  2414.499
 629  2258.148
 630  2540.434
 631  2679.231
 632  2755.472
 633  3160.258
 634  2997.14
 635  2506.813
 636  2129.412
 637  2261.489
 638  2373.27
 639  2190.711
 640  2524.353
 641  2547.233
 642  2378.92
 643  2193.567
 644  2086.601
 645  1979.534
 646  1702.767
 647  2070.214
 648  2371.233
 649  2405.554
 650  2538.544
 651  2566.417
 652  2522.839
 653  2275.853
 654  2154.119
 655  2474.273
 656  2714.73
 657  2792.224
 658  2855.831
 659  2673.055
 660  2498.745
 661  2295.268
 662  2426.639
 663  2950.453
 664  2926.401
 665  3299.705
 666  3376.477
 667  3109.365
 668  2771.695
 669  2547.093
 670  2497.417
 671  2297.238
 672  2306.307
 673  2564.529
 674  2521.121
 675  2234.674
 676  2118.896
 677  2022.677
 678  1902.064
 679  1754.982
 680  2220.185
 681  2475.663
 682  2407.835
 683  2546.851
 684  2418.8
 685  2398.866
 686  2198.001
 687  2294.182
 688  2812.046
 689  2648.146
 690  2633.574
 691  2669.307
 692  2782.526
 693  2721.585
 694  2495.524
 695  2584.01
 696  2652.337
 697  2366.148
 698  2846.892
 699  2978.426
 700  2901.28
 701  2717.558
 702  2783.666
 703  2742.035
 704  2321.979
 705  2479.045
 706  2704.251
 707  2506.129
 708  2409.233
 709  2274.399
 710  2173.512
 711  1755.544
 712  1809.785
 713  2212.073
 714  2193.919
 715  2346.25
 716  2626.41
 717  2709.86
 718  2565.171
 719  2254.423
 720  2392.632
 721  2542.103
 722  2418.193
 723  2578.407
 724  2644.094
 725  2525.445
 726  2337.159
 727  2222.136
 728  2548.741
 729  2358.26
 730  2708.957
 731  3121.523
 732  3098.385
 733  2959.109
 734  2767.207
 735  2595.735
 736  2323.428
 737  2086.752
 738  2477.783
 739  2487.1
 740  2447.541
 741  2365.404
 742  2156.323
 743  1754.655
 744  1452.87
 745  1950.035
 746  2263.09
 747  2210.056
 748  2413.581
 749  2477.613
 750  2528.364
 751  2329.894
 752  2371.1
 753  2755.391
 754  2585.469
 755  2599.731
 756  2756.18
 757  2726.244
 758  2645.716
 759  2414.479
 760  2375.624
 761  2318.076
 762  2265.164
 763  2765.053
 764  2910.325
 765  2756.318
 766  2664.855
 767  2495.276
 768  2443.569
 769  2257.527
 770  2464.409
 771  2513.711
 772  2282.271
 773  2430.162
 774  2506.357
 775  2251.023
 776  1773.324
 777  1698.428
 778  1887.935
 779  1743.308
 780  1939.311
 781  2306.387
 782  2404.045
 783  2395.915
 784  2356.293
 785  2367.226
 786  2385.459
 787  2248.43
 788  2652.954
 789  2931.262
 790  2940.25
 791  2734.119
 792  2432.351
 793  2339.776
 794  2322.727
 795  2462.801
 796  2801.151
 797  2761.267
 798  2984.81
 799  3046.703
 800  2919.931
 801  2580.454
 802  2366.244
 803  2426.97
 804  2474.518
 805  2416.75
 806  2643.501
 807  2412.672
 808  2118.408
 809  1842.179
 810  1855.024
 811  1860.927
 812  1905.378
 813  2379.716
 814  2434.629
 815  2494.736
 816  2392.449
 817  2336.095
 818  2424.651
 819  2468.408
 820  2578.235
 821  2926.987
 822  2958.98
 823  3005.402
 824  2944.975
 825  2806.541
 826  2691.512
 827  2416.768
 828  2495.394
 829  2687.762
 830  2839.791
 831  3087.308
 832  3041.306
 833  2673.569
 834  2290.546
 835  2160.317
 836  2340.789
 837  2343.254
 838  2657.224
 839  2872.895
 840  2813.279
 841  2501.783
 842  2368.399
 843  2140.123
 844  1939.261
 845  1966.322
 846  2469.766
 847  2446.188
 848  2337.186
 849  2227.089
 850  2220.491
 851  2232.561
 852  2037.741
 853  2299.811
 854  2672.084
 855  2711.497
 856  2846.131
 857  2903.364
 858  2937.258
 859  2651.469
 860  2345.728
 861  2498.615
 862  2542.792
 863  2662.521
 864  2959.168
 865  2854.503
 866  2492.137
 867  2152.909
 868  2236.737
 869  2377.011
 870  2293.311
 871  2649.033
 872  2585.99
 873  2332.315
 874  2106.454
 875  2047.511
 876  1939.255
 877  1750.622
 878  1972.111
 879  2248.279
 880  2399.813
 881  2627.009
 882  2692.781
 883  2909.175
 884  2730.038
 885  2493.93
 886  2689.336
 887  2532.898
 888  2524.049
 889  2623.665
 890  2573.024
 891  2416.619
 892  2048.576
 893  2173.209
 894  2486.883
 895  2504.381
 896  2898.688
 897  3093.277
 898  2900.104
 899  2617.13
 900  2395.275
 901  2555.145
 902  2348.792
 903  2306.022
 904  2326.545
 905  2146.251
 906  2104.05
 907  2070.788
 908  2109.485
 909  1883.964
 910  1846.731
 911  2203.174
 912  2314.619
 913  2402.778
 914  2724.19
 915  2766.633
 916  2578.806
 917  2272.346
 918  2348.548
 919  2627.453
 920  2399.584
 921  2513.078
 922  2632.211
 923  2661.563
 924  2539.391
 925  2239.636
 926  2311.272
 927  2426.841
 928  2480.987
 929  3035.582
 930  2987.19
 931  2714.109
 932  2491.326
 933  2304.95
 934  2249.678
 935  2065.847
 936  2357.245
 937  2328.42
 938  2112.402
 939  2231.059
 940  2248.653
 941  2028.701
 942  1830.772
 943  2041.89
 944  2053.456
 945  1850.336
 946  2045.314
 947  2434.636
 948  2539.965
 949  2394.094
 950  2275.812
 951  2507.932
 952  2490.997
 953  2456.214
 954  2711.533
 955  2561.249
 956  2471.084
 957  2189.18
 958  2175.231
 959  2324.026
 960  2341.311
 961  2788.03
 962  3112.134
 963  3027.925
 964  3081.522
 965  3024.572
 966  2873.108
 967  2457.37
 968  2241.499
 969  2300.526
 970  2310.263
 971  2378.322
 972  2545.659
 973  2347.383
 974  2160.714
 975  1971.537
 976  2147.561
 977  2106.797
 978  2011.833
 979  2410.635
 980  2354.275
 981  2275.945
 982  2273.576
 983  2239.247
 984  2296.263
 985  2142.407
 986  2559.819
 987  3086.537
 988  3220.003
 989  3067.2
 990  2751.285
 991  2667.556
 992  2819.089
 993  2628.878
 994  2868.793
 995  2820.848
 996  2743.568
 997  2949.293
 998  2776.898
 999  2400.06
1000  2012.801
1001  2205.865
1002  2465.809
1003  2359.787
1004  2659.306
1005  2569.154
1006  2419.379
1007  2258.043
1008  2411.84
1009  2436.606
1010  2221.699
1011  2482.879
1012  2917.378
1013  2844.533
1014  2652.261
1015  2378.861
1016  2360.396
1017  2307.465
1018  2114.309
1019  2487.501
1020  2645.124
1021  2712.39
1022  2651.438
1023  2608.208
