# Input file       =  1209546443.111069_cleaned.dat
# Candidate        =  PSR_0332+5434
# Telescope        =  AR
# Epoch_topo       =  58243.380348507744
# Epoch_bary       =  N/A
# T_sample         =  0.002
# Data Folded      =  7340032
# Data Avg         =  0.0759066834056693
# Data StdDev      =  1.00014028607825 
# Profile Bins     =  512
# Profile Avg      =  1088.94315469764 
# Profile StdDev   =  119.749833254877 
# Reduced chi-sqr  =  2.048
# Prob(Noise)      <  4.06e-39   (~13.0 sigma)
# P_topo (ms)      =  714.542740606474  +/- 0.000753
# P'_topo (s/s)    =  -0                +/- 3.98e-10
# P''_topo (s/s^2) =  0                 +/- 1.75e-13
# P_bary (ms)      =  N/A
# P'_bary (s/s)    =  N/A
# P''_bary (s/s^2) =  N/A
# P_orb (s)        =  N/A
# asin(i)/c (s)    =  N/A
# eccentricity     =  N/A
# w (rad)          =  N/A
# T_peri           =  N/A
######################################################
   0  1627.898
   1  1549.487
   2  1455.235
   3  1380.864
   4  1255.217
   5  1163.487
   6  1131.389
   7  1196.976
   8  1211.368
   9  1245.804
  10  1135.578
  11  1139.32
  12  1218.345
  13  1257.498
  14  1215.293
  15  1186.986
  16  1215.831
  17  1246.405
  18  1228.478
  19  1141.085
  20  1114.811
  21  1181.362
  22  1202.506
  23  1193.22
  24  1130.281
  25  1109.74
  26  1168.159
  27  1242.895
  28  1225.334
  29  1182.513
  30  1225.68
  31  1205.561
  32  1146.579
  33  1138.721
  34  1190.347
  35  1158.286
  36  1166.002
  37  1215.587
  38  1240.932
  39  1191.938
  40  1163.624
  41  1191.181
  42  1127.074
  43  1141.301
  44  1125.113
  45  1107.91
  46  1131.709
  47  1086.807
  48  1000.721
  49  950.6624
  50  1006.356
  51  1087.721
  52  1048.673
  53  996.2952
  54  1036.483
  55  1109.027
  56  1156.362
  57  1047.658
  58  1019.745
  59  1039.284
  60  1135.904
  61  1101.241
  62  1042.644
  63  1037.422
  64  1052.526
  65  1010.941
  66  1015.522
  67  983.176
  68  993.4873
  69  1016.802
  70  986.0981
  71  900.0956
  72  872.995
  73  902.8049
  74  958.4966
  75  927.8928
  76  885.4162
  77  891.6733
  78  877.5148
  79  928.1341
  80  909.0944
  81  924.7784
  82  937.8164
  83  890.6192
  84  929.2793
  85  918.8824
  86  862.813
  87  918.2627
  88  959.1192
  89  938.9885
  90  929.8939
  91  915.8195
  92  1003.096
  93  995.2214
  94  984.5406
  95  1029.029
  96  948.1182
  97  954.0767
  98  919.1021
  99  1000.042
 100  1034.502
 101  1001.817
 102  975.856
 103  1035.458
 104  1012.098
 105  995.6226
 106  1019.909
 107  1000.038
 108  956.653
 109  973.5927
 110  1005.59
 111  969.5538
 112  960.3198
 113  930.9951
 114  1013.438
 115  1045.596
 116  1010.675
 117  917.1023
 118  904.2631
 119  990.2603
 120  1046.953
 121  1000.385
 122  974.569
 123  1069.04
 124  1095.089
 125  1031.796
 126  950.8543
 127  1073.317
 128  1123.923
 129  1072.375
 130  1078.678
 131  1049.596
 132  992.3204
 133  897.8589
 134  927.6533
 135  1008.517
 136  983.5234
 137  975.0405
 138  930.0922
 139  887.9257
 140  976.5183
 141  1041.018
 142  938.3552
 143  1004.554
 144  1052.097
 145  1010.07
 146  982.2692
 147  945.616
 148  972.8652
 149  968.9978
 150  898.783
 151  997.3611
 152  960.6412
 153  979.9617
 154  994.9343
 155  975.6889
 156  1015.892
 157  983.5709
 158  998.2199
 159  1031.047
 160  1006.646
 161  965.3011
 162  1054.232
 163  1021.03
 164  1020.507
 165  1093.709
 166  1063.752
 167  1124.089
 168  1100.075
 169  1135.715
 170  1130.727
 171  1126.142
 172  1111.108
 173  1101.273
 174  1073.573
 175  1102.334
 176  1036.424
 177  982.7125
 178  981.2175
 179  917.2057
 180  1000.006
 181  1022.244
 182  977.7006
 183  1011.827
 184  1004.761
 185  1050.428
 186  1055.511
 187  986.1519
 188  1034.254
 189  1082.029
 190  1112.3
 191  1073.358
 192  988.6661
 193  980.9927
 194  969.0497
 195  964.9162
 196  975.0835
 197  1012.274
 198  1004.163
 199  877.9111
 200  836.0182
 201  832.9227
 202  869.2878
 203  941.071
 204  918.8474
 205  920.3486
 206  829.5035
 207  942.9824
 208  925.6665
 209  899.8195
 210  876.8
 211  957.5844
 212  887.6205
 213  948.8173
 214  1023.053
 215  884.5024
 216  879.9998
 217  921.1985
 218  909.7386
 219  942.2424
 220  870.3585
 221  842.8967
 222  867.1212
 223  833.7377
 224  857.8745
 225  932.5945
 226  921.0999
 227  928.6194
 228  909.6108
 229  849.8455
 230  876.6946
 231  922.1675
 232  867.4145
 233  761.6851
 234  837.0736
 235  894.4604
 236  868.097
 237  930.5375
 238  910.4902
 239  928.8505
 240  941.4908
 241  848.0296
 242  837.319
 243  910.1324
 244  953.1495
 245  928.1529
 246  906.363
 247  1005.063
 248  929.8523
 249  900.5623
 250  961.4937
 251  1010.957
 252  1054.467
 253  1051.083
 254  1059.545
 255  1053.784
 256  959.1104
 257  984.9271
 258  997.8873
 259  960.8689
 260  984.564
 261  1013.316
 262  1035.446
 263  1099.762
 264  1064.997
 265  1109.508
 266  1157.45
 267  1080.232
 268  1056.035
 269  1062.033
 270  1090.696
 271  1086.49
 272  1017.426
 273  1040.214
 274  1060.325
 275  1091.745
 276  1097.818
 277  1030.83
 278  1053.755
 279  1124.933
 280  1137.929
 281  1092.919
 282  1092.682
 283  1204.465
 284  1182.962
 285  1120.545
 286  1217.936
 287  1199.013
 288  1142.701
 289  1105.238
 290  1072.563
 291  1142.265
 292  1148.591
 293  1146.231
 294  1187.198
 295  1118.036
 296  1222.19
 297  1271.936
 298  1228.88
 299  1220.482
 300  1056.185
 301  1039.963
 302  1076.596
 303  1101.088
 304  1085.666
 305  1018.756
 306  1011.222
 307  1052.004
 308  1059.67
 309  1026.266
 310  1066.972
 311  1047.161
 312  1062.316
 313  1105.131
 314  1059.047
 315  1066.555
 316  1099.926
 317  1123.236
 318  1132.949
 319  1169.454
 320  1186.202
 321  1146.126
 322  1164.633
 323  1136.109
 324  1087.289
 325  1047.503
 326  1007.15
 327  1078.168
 328  1211.517
 329  1159.497
 330  1218.328
 331  1171.462
 332  1179.118
 333  1148.634
 334  1119.403
 335  1090.168
 336  1143.827
 337  1189.734
 338  1208.434
 339  1137.294
 340  1198.241
 341  1236.78
 342  1310.273
 343  1250.761
 344  1163.576
 345  1216.982
 346  1231.576
 347  1166.267
 348  1137.475
 349  1176.584
 350  1178.787
 351  1153.221
 352  1131.116
 353  1145.56
 354  1199.179
 355  1189.073
 356  1120.494
 357  1100.847
 358  1128.823
 359  1197.532
 360  1198.411
 361  1144.979
 362  1059.912
 363  1171.238
 364  1170.042
 365  1159.696
 366  1190.568
 367  1161.9
 368  1160.858
 369  1239.999
 370  1265.448
 371  1283.731
 372  1281.896
 373  1227.293
 374  1268.742
 375  1289.668
 376  1305.617
 377  1290.824
 378  1232.689
 379  1171.853
 380  1262.763
 381  1289.235
 382  1318.17
 383  1229.893
 384  1225.761
 385  1209.038
 386  1124.442
 387  1101.152
 388  1181.6
 389  1238.37
 390  1213.201
 391  1210.504
 392  1192.212
 393  1209.538
 394  1182.779
 395  1159.016
 396  1128.836
 397  1128.423
 398  1147.401
 399  1203.977
 400  1232.899
 401  1150.368
 402  1181.972
 403  1141.159
 404  1171.473
 405  1116.448
 406  1139.553
 407  1210.322
 408  1218.212
 409  1201.656
 410  1206.765
 411  1165.48
 412  1177.612
 413  1206.998
 414  1184.352
 415  1253.094
 416  1196.635
 417  1127.309
 418  1144.184
 419  1200.869
 420  1166.059
 421  1180.145
 422  1234.443
 423  1257.744
 424  1293.677
 425  1272.704
 426  1245.197
 427  1234.594
 428  1200.166
 429  1164.439
 430  1160.235
 431  1220.119
 432  1186.177
 433  1166.784
 434  1197.713
 435  1243.766
 436  1137.047
 437  1119.059
 438  1171.639
 439  1235.445
 440  1159.587
 441  1112.581
 442  1132.761
 443  1165.603
 444  1078.441
 445  1096.546
 446  1084.268
 447  1119.972
 448  1126.616
 449  1193.418
 450  1177.993
 451  1206.636
 452  1220.442
 453  1205.279
 454  1212.51
 455  1219.92
 456  1247.656
 457  1233.026
 458  1297.863
 459  1252.494
 460  1256.696
 461  1267.471
 462  1193.308
 463  1182.906
 464  1230.751
 465  1230.495
 466  1140.014
 467  1169.025
 468  1209.701
 469  1258.668
 470  1159.338
 471  1213.701
 472  1230.68
 473  1185.842
 474  1172.268
 475  1124.821
 476  1142.635
 477  1107.849
 478  1193.395
 479  1095.162
 480  981.5729
 481  986.4968
 482  1142.213
 483  1128.064
 484  1045.774
 485  1052.057
 486  1098.213
 487  1110.879
 488  1172.983
 489  1263.086
 490  1150.404
 491  1136.77
 492  1094.788
 493  1121.747
 494  1038.889
 495  1031.875
 496  1105.029
 497  1048.351
 498  1056.543
 499  1102.603
 500  1134.024
 501  1097.998
 502  1089.29
 503  1114.972
 504  1207.268
 505  1210.986
 506  1207.02
 507  1263.063
 508  1346.767
 509  1344.98
 510  1461.648
 511  1609.488
