# Input file       =  1209445701.104754_cleaned.dat
# Candidate        =  PSR_0332+5434
# Telescope        =  AR
# Epoch_topo       =  58242.214353064279
# Epoch_bary       =  N/A
# T_sample         =  0.002
# Data Folded      =  7143424
# Data Avg         =  0.352059090700121
# Data StdDev      =  6.68066477452682 
# Profile Bins     =  256
# Profile Avg      =  9823.89736793469 
# Profile StdDev   =  1115.97100686947 
# Reduced chi-sqr  =  1.416
# Prob(Noise)      <  1.35e-05   (~4.2 sigma)
# P_topo (ms)      =  714.543804159284  +/- 3.94e-05
# P'_topo (s/s)    =  -0                +/- 2.14e-11
# P''_topo (s/s^2) =  0                 +/- 9.69e-15
# P_bary (ms)      =  N/A
# P'_bary (s/s)    =  N/A
# P''_bary (s/s^2) =  N/A
# P_orb (s)        =  N/A
# asin(i)/c (s)    =  N/A
# eccentricity     =  N/A
# w (rad)          =  N/A
# T_peri           =  N/A
######################################################
   0  10758.72
   1  12529.03
   2  11090.49
   3  9923.649
   4  7097.112
   5  9814.92
   6  11017.64
   7  10729.06
   8  9399.001
   9  11129.12
  10  11072.51
  11  9390.126
  12  7755.913
  13  7763.399
  14  10061.03
  15  11066.8
  16  9996.659
  17  10039.23
  18  10637.02
  19  9491.605
  20  9116.979
  21  7420.401
  22  9815.769
  23  10463.21
  24  10740.45
  25  9267.268
  26  11988.67
  27  9669.229
  28  9795.928
  29  8001.302
  30  9332.875
  31  8888.531
  32  11425.82
  33  10794.23
  34  12591.02
  35  9820.214
  36  9356.224
  37  8554.055
  38  9708.372
  39  10516.07
  40  10224.19
  41  8754.307
  42  10673.87
  43  10975.16
  44  10259.54
  45  7931.027
  46  8490.697
  47  10136.1
  48  10403.4
  49  10379.72
  50  10073.5
  51  10104.72
  52  9514.522
  53  9089.596
  54  7540.37
  55  9777.092
  56  10123.79
  57  10727.73
  58  9816.51
  59  10922.84
  60  9104.516
  61  9912.832
  62  6536.094
  63  9310.941
  64  9717.762
  65  10606.54
  66  9524.215
  67  11579.98
  68  9725.665
  69  10193.66
  70  8979.568
  71  9166.182
  72  9502.366
  73  10840.63
  74  9675.749
  75  10707.79
  76  10447.31
  77  9854.203
  78  8845.329
  79  9032.91
  80  10306.69
  81  10334.56
  82  10655.93
  83  10802.14
  84  10545.53
  85  9132.589
  86  8410.627
  87  7084.977
  88  10005.09
  89  8928.569
  90  10290.94
  91  10044.17
  92  12059.87
  93  9659.323
  94  9124.386
  95  7241.216
  96  8941.196
  97  9702.329
  98  11123.13
  99  9435.92
 100  10478.75
 101  9205.7
 102  9922.558
 103  7879.437
 104  8354.542
 105  10058.65
 106  10352.7
 107  9476.59
 108  10681.26
 109  10821.84
 110  9551.723
 111  8506.955
 112  7594.528
 113  9815.505
 114  11055.36
 115  10888.81
 116  9014.164
 117  11253.95
 118  10124.31
 119  9723.702
 120  7621.534
 121  9415.355
 122  9443.244
 123  10470.12
 124  9653.518
 125  11046.12
 126  8782.702
 127  8746.416
 128  8054.276
 129  9629.649
 130  9247.824
 131  9225.939
 132  9118.905
 133  10745.93
 134  9860.886
 135  9266.409
 136  7518.409
 137  8894.32
 138  10001.83
 139  10843.33
 140  9828.882
 141  10767.22
 142  9646.089
 143  9185.956
 144  8777.364
 145  8301.096
 146  10080.99
 147  11293.17
 148  10926.82
 149  11686.86
 150  14933.33
 151  12831.21
 152  9678.137
 153  7488.271
 154  9882.734
 155  10205.5
 156  10819.46
 157  9815.29
 158  11537.75
 159  9035.508
 160  9708.717
 161  7792.612
 162  9731.885
 163  9403.259
 164  11020.31
 165  9972.161
 166  12707.42
 167  10532.49
 168  9623.214
 169  8013.388
 170  9236.509
 171  9362.415
 172  10608.22
 173  10636.89
 174  10694.16
 175  11283.58
 176  10101.39
 177  9066.363
 178  8138.011
 179  10251.72
 180  9752.491
 181  9917.002
 182  10264.85
 183  11714.27
 184  9468.472
 185  9109.175
 186  7569.911
 187  9721.773
 188  10126.55
 189  10669.13
 190  9505.967
 191  11043.52
 192  9661.983
 193  9618.739
 194  7347.314
 195  8714.477
 196  9362.652
 197  11089.27
 198  9630.941
 199  11354.26
 200  10570.98
 201  10008.13
 202  7939.342
 203  8880.031
 204  9642.68
 205  11205.49
 206  11171.95
 207  10722.65
 208  10611.08
 209  9877.555
 210  10216.2
 211  8642.07
 212  9150.524
 213  9423.432
 214  11469.93
 215  9913.699
 216  10819.63
 217  9217.288
 218  9422.797
 219  7814.754
 220  10275.09
 221  10678.09
 222  10228.92
 223  9104.1
 224  11521.71
 225  9644.697
 226  8838.316
 227  7907.589
 228  9953.271
 229  9927.023
 230  10161.34
 231  9682.46
 232  11096.15
 233  9398.663
 234  8937.072
 235  8177.632
 236  8247.971
 237  9661.784
 238  10260.14
 239  9223.484
 240  10952.59
 241  11741.63
 242  9187.304
 243  9257.531
 244  8435.957
 245  9244.387
 246  9630.464
 247  11941.82
 248  11143.49
 249  11058.77
 250  9004.95
 251  10018.88
 252  9308.318
 253  10948.76
 254  9159.851
 255  10598.71
