# Input file       =  1209977319.111644_cleaned.dat
# Candidate        =  PSR_0332+5434
# Telescope        =  AR
# Epoch_topo       =  58248.367339255143
# Epoch_bary       =  N/A
# T_sample         =  0.002
# Data Folded      =  7340032
# Data Avg         =  0.0415551795982631
# Data StdDev      =  1.00018779659049 
# Profile Bins     =  512
# Profile Avg      =  595.746113360036 
# Profile StdDev   =  119.755521832766 
# Reduced chi-sqr  =  1.237
# Prob(Noise)      <  0.000196   (~3.5 sigma)
# P_topo (ms)      =  714.538057080035  +/- 0.000436
# P'_topo (s/s)    =  -0                +/- 2.3e-10
# P''_topo (s/s^2) =  0                 +/- 1.01e-13
# P_bary (ms)      =  N/A
# P'_bary (s/s)    =  N/A
# P''_bary (s/s^2) =  N/A
# P_orb (s)        =  N/A
# asin(i)/c (s)    =  N/A
# eccentricity     =  N/A
# w (rad)          =  N/A
# T_peri           =  N/A
######################################################
   0  1280.06
   1  1176.811
   2  1115.04
   3  893.0435
   4  704.4642
   5  716.1092
   6  729.2445
   7  609.6469
   8  540.0988
   9  544.4568
  10  624.673
  11  678.5776
  12  663.7333
  13  649.3803
  14  619.4005
  15  610.7516
  16  644.3322
  17  611.4361
  18  490.715
  19  476.8947
  20  520.0953
  21  622.0937
  22  634.1436
  23  613.2578
  24  565.4424
  25  563.389
  26  543.5042
  27  551.7139
  28  593.678
  29  621.9269
  30  631.3089
  31  579.6187
  32  581.7903
  33  543.9598
  34  617.6558
  35  650.9401
  36  664.9222
  37  617.9893
  38  639.6637
  39  650.5097
  40  734.0581
  41  685.8232
  42  621.1859
  43  641.5752
  44  645.8244
  45  610.5052
  46  623.9818
  47  606.1923
  48  610.8276
  49  673.4884
  50  756.7057
  51  714.138
  52  677.3193
  53  770.4542
  54  668.733
  55  650.1962
  56  748.0748
  57  735.7995
  58  770.0596
  59  778.0691
  60  734.788
  61  765.4152
  62  718.0945
  63  630.7175
  64  670.5725
  65  765.3365
  66  874.3743
  67  810.0338
  68  750.5739
  69  674.2065
  70  638.8624
  71  656.5485
  72  692.0313
  73  743.1353
  74  747.5605
  75  708.4673
  76  642.6893
  77  651.199
  78  690.0386
  79  648.1752
  80  650.9216
  81  658.3911
  82  675.3132
  83  592.5965
  84  589.4783
  85  612.9918
  86  619.9574
  87  560.7386
  88  575.6085
  89  631.7905
  90  645.8426
  91  600.8904
  92  561.5919
  93  605.3158
  94  569.3537
  95  569.9124
  96  580.3165
  97  553.9294
  98  515.7383
  99  464.4628
 100  493.563
 101  512.0582
 102  466.5765
 103  448.477
 104  437.0295
 105  440.9486
 106  479.3752
 107  498.3644
 108  475.1098
 109  516.3575
 110  554.9838
 111  500.8386
 112  483.7901
 113  558.7846
 114  593.8032
 115  625.8686
 116  616.4624
 117  644.8058
 118  588.3763
 119  526.3188
 120  513.4694
 121  485.1126
 122  523.4185
 123  534.4554
 124  592.6813
 125  588.4238
 126  560.1609
 127  540.4858
 128  508.1308
 129  481.1344
 130  480.2334
 131  473.813
 132  524.7198
 133  536.6187
 134  571.4495
 135  596.2342
 136  611.6306
 137  552.718
 138  531.7455
 139  540.0705
 140  533.9631
 141  532.607
 142  582.3148
 143  587.8337
 144  593.6666
 145  589.0377
 146  598.0597
 147  602.0505
 148  608.0613
 149  599.8941
 150  580.0893
 151  533.8354
 152  555.4569
 153  527.2234
 154  606.3366
 155  634.8691
 156  542.7264
 157  553.8161
 158  508.6264
 159  574.3541
 160  594.7961
 161  594.8821
 162  614.8425
 163  577.1146
 164  544.5518
 165  487.333
 166  528.2764
 167  561.657
 168  510.0524
 169  565.1525
 170  609.1677
 171  575.3669
 172  508.132
 173  504.4592
 174  386.4856
 175  479.1363
 176  614.696
 177  559.5254
 178  518.475
 179  551.4809
 180  534.1631
 181  566.5883
 182  625.7735
 183  595.9355
 184  551.3509
 185  519.3284
 186  470.7196
 187  459.3053
 188  454.6632
 189  458.2687
 190  550.7561
 191  634.2176
 192  612.83
 193  503.6319
 194  520.8821
 195  607.5487
 196  586.6436
 197  608.2776
 198  619.6577
 199  564.8322
 200  556.6427
 201  588.8561
 202  566.1648
 203  608.2673
 204  557.4395
 205  514.278
 206  439.8828
 207  460.625
 208  583.2779
 209  538.5485
 210  436.2787
 211  420.2227
 212  439.658
 213  403.0679
 214  472.9638
 215  538.3239
 216  530.1937
 217  491.2253
 218  454.6746
 219  514.9501
 220  524.8274
 221  595.5162
 222  577.0196
 223  555.9119
 224  629.9659
 225  634.4363
 226  569.1507
 227  524.2443
 228  534.287
 229  537.2991
 230  465.2516
 231  543.7809
 232  506.4461
 233  504.6461
 234  480.6479
 235  391.5962
 236  462.2368
 237  503.5861
 238  472.2248
 239  521.2988
 240  571.3329
 241  612.0408
 242  593.5783
 243  617.193
 244  611.5728
 245  593.3715
 246  617.5671
 247  583.1842
 248  524.1173
 249  534.4282
 250  506.0388
 251  513.7138
 252  493.8367
 253  503.9313
 254  572.0912
 255  582.9607
 256  617.2836
 257  636.6078
 258  599.6328
 259  586.1052
 260  615.1357
 261  634.8443
 262  597.7478
 263  662.5547
 264  629.1976
 265  582.56
 266  625.9581
 267  617.757
 268  623.4111
 269  567.8965
 270  649.7269
 271  705.415
 272  665.402
 273  706.2709
 274  671.3087
 275  642.3586
 276  595.6136
 277  653.3639
 278  652.2133
 279  618.8476
 280  679.1968
 281  656.7388
 282  623.4495
 283  611.2856
 284  633.9406
 285  584.8756
 286  671.0419
 287  632.7355
 288  548.8875
 289  574.3217
 290  516.5101
 291  528.8806
 292  589.2808
 293  580.5339
 294  598.8624
 295  631.5042
 296  679.8135
 297  643.2171
 298  591.7975
 299  695.1693
 300  690.5003
 301  622.3846
 302  706.2971
 303  669.5136
 304  642.2582
 305  620.452
 306  663.6177
 307  638.2123
 308  593.5964
 309  542.5005
 310  656.1584
 311  557.8645
 312  588.4916
 313  617.0363
 314  685.0895
 315  694.9307
 316  693.2428
 317  662.2691
 318  705.6932
 319  679.2182
 320  661.1346
 321  683.6747
 322  604.9258
 323  638.5963
 324  703.8471
 325  729.1231
 326  614.4748
 327  603.8978
 328  619.2618
 329  562.2244
 330  542.4276
 331  583.603
 332  571.2552
 333  554.0288
 334  533.6768
 335  566.5256
 336  502.1265
 337  545.967
 338  517.0802
 339  519.7332
 340  529.393
 341  581.8979
 342  533.3119
 343  562.5555
 344  583.836
 345  607.8213
 346  598.7638
 347  586.8446
 348  643.013
 349  626.4775
 350  576.0226
 351  584.1909
 352  553.1675
 353  552.5228
 354  554.0558
 355  545.8474
 356  558.3257
 357  602.7806
 358  650.0016
 359  639.3467
 360  537.7587
 361  615.6441
 362  622.3747
 363  658.4819
 364  672.1221
 365  658.649
 366  657.8682
 367  618.9012
 368  577.9347
 369  613.0416
 370  583.7673
 371  544.6014
 372  490.9412
 373  531.5113
 374  482.1194
 375  435.0404
 376  485.0924
 377  529.0895
 378  550.9158
 379  540.3278
 380  473.1047
 381  576.7356
 382  552.2609
 383  482.6499
 384  520.2278
 385  574.8442
 386  590.7515
 387  604.9323
 388  588.4911
 389  570.3685
 390  600.056
 391  553.1519
 392  555.8026
 393  583.5969
 394  555.8511
 395  516.7527
 396  497.7059
 397  536.2683
 398  608.3671
 399  555.3159
 400  526.1392
 401  504.1245
 402  521.6873
 403  564.9354
 404  585.6275
 405  671.2084
 406  610.3387
 407  668.2524
 408  648.0349
 409  588.5287
 410  579.2707
 411  591.4228
 412  585.4965
 413  627.257
 414  563.3125
 415  601.0785
 416  616.8688
 417  614.0068
 418  646.409
 419  608.5103
 420  610.4949
 421  608.5297
 422  612.7643
 423  560.4015
 424  548.0779
 425  474.5786
 426  536.0262
 427  571.278
 428  611.3377
 429  500.1589
 430  460.7189
 431  500.4682
 432  600.4365
 433  547.4879
 434  519.0368
 435  542.4761
 436  540.9625
 437  529.587
 438  504.9846
 439  498.038
 440  625.8235
 441  554.1891
 442  467.6926
 443  433.4344
 444  511.0371
 445  539.8009
 446  517.7478
 447  605.7518
 448  630.167
 449  616.2775
 450  569.2825
 451  584.7801
 452  569.3125
 453  593.9139
 454  532.0788
 455  490.4014
 456  467.5157
 457  484.829
 458  473.6938
 459  548.1677
 460  589.2807
 461  637.3765
 462  634.5962
 463  591.2386
 464  673.7542
 465  631.4594
 466  527.3685
 467  602.7241
 468  679.8268
 469  606.3026
 470  543.8483
 471  604.5602
 472  631.2318
 473  570.2516
 474  580.3995
 475  587.5595
 476  622.9774
 477  659.2689
 478  608.6124
 479  565.4832
 480  582.0352
 481  541.9288
 482  510.3005
 483  628.6174
 484  604.2639
 485  633.8331
 486  681.1303
 487  622.7924
 488  598.4977
 489  651.3392
 490  650.1622
 491  619.9444
 492  693.9119
 493  691.6546
 494  657.7903
 495  655.4976
 496  736.8048
 497  633.48
 498  634.2156
 499  719.7433
 500  609.6045
 501  613.7363
 502  680.4601
 503  695.1674
 504  683.9501
 505  619.8999
 506  736.0576
 507  809.4457
 508  858.6996
 509  981.1414
 510  1148.754
 511  1260.32
