# Input file       =  1209992232.11647_cleaned.dat
# Candidate        =  PSR_0332+5434
# Telescope        =  AR
# Epoch_topo       =  58248.539943477663
# Epoch_bary       =  N/A
# T_sample         =  0.002
# Data Folded      =  7340032
# Data Avg         =  0.143650809518086
# Data StdDev      =  3.58708512686495 
# Profile Bins     =  512
# Profile Avg      =  2059.38788491202 
# Profile StdDev   =  429.492593981478 
# Reduced chi-sqr  =  1.229
# Prob(Noise)      <  0.000291   (~3.4 sigma)
# P_topo (ms)      =  714.538227513862  +/- 0.000358
# P'_topo (s/s)    =  -0                +/- 1.89e-10
# P''_topo (s/s^2) =  0                 +/- 8.34e-14
# P_bary (ms)      =  N/A
# P'_bary (s/s)    =  N/A
# P''_bary (s/s^2) =  N/A
# P_orb (s)        =  N/A
# asin(i)/c (s)    =  N/A
# eccentricity     =  N/A
# w (rad)          =  N/A
# T_peri           =  N/A
######################################################
   0  1947.583
   1  1821.605
   2  1728.151
   3  2089.222
   4  2036.285
   5  1855.002
   6  2062.531
   7  1743.852
   8  1944.705
   9  1974.468
  10  1791.223
  11  1871.76
  12  1823.798
  13  1810.8
  14  1935.005
  15  1491.276
  16  1638.093
  17  1905.575
  18  1910.851
  19  1947.34
  20  1881.317
  21  1621.427
  22  1580.38
  23  1665.443
  24  1622.468
  25  1299.132
  26  1346.71
  27  1434.339
  28  1202.66
  29  1473.708
  30  1417.244
  31  1487.348
  32  1465.712
  33  1787.526
  34  1781.719
  35  1559.57
  36  1531.422
  37  1541.032
  38  1923.565
  39  1945.195
  40  1716.473
  41  1292.583
  42  1661.788
  43  1757.574
  44  2009.478
  45  1916.841
  46  1653.42
  47  1805.701
  48  1591.063
  49  1676.903
  50  1924.195
  51  2102.524
  52  1957.226
  53  1842.039
  54  2237.987
  55  2000.26
  56  2060.531
  57  2124.308
  58  2007.488
  59  2291.183
  60  2049.906
  61  2061.841
  62  2245.784
  63  1961.451
  64  1903.867
  65  1766.444
  66  1990.204
  67  1752.092
  68  1689.849
  69  1898.596
  70  1986.303
  71  2215.367
  72  2286.824
  73  2108.722
  74  1796.01
  75  1977.262
  76  2165.527
  77  2432.042
  78  1911.245
  79  1853.151
  80  1957.556
  81  1793.616
  82  1822.414
  83  2024.874
  84  2088.145
  85  1740.017
  86  1899.17
  87  1987.584
  88  1785.144
  89  1822.856
  90  2144.392
  91  1983.343
  92  1956.98
  93  2056.601
  94  2079.762
  95  1974.861
  96  1970.843
  97  2104.587
  98  2004.666
  99  1960.677
 100  2040.612
 101  2012.71
 102  1839.599
 103  1848.485
 104  2284.032
 105  2201.801
 106  1699.841
 107  1404.918
 108  1640.44
 109  1878.25
 110  1697.769
 111  1584.413
 112  1704.877
 113  1674.272
 114  1735.527
 115  2066.697
 116  2174.064
 117  1890.569
 118  1673.69
 119  1739.573
 120  1867.954
 121  1698.16
 122  1856.064
 123  1664.135
 124  1877.521
 125  1618.203
 126  1588.892
 127  1658.312
 128  1497.275
 129  1678.496
 130  1504.35
 131  1602.578
 132  2269.444
 133  1990.225
 134  1974.14
 135  2071.925
 136  2217.106
 137  2068.708
 138  2030.983
 139  2082.536
 140  1721.847
 141  1723.808
 142  1865.808
 143  2294.407
 144  2202.922
 145  2260.321
 146  2079.611
 147  1895.829
 148  1657.529
 149  1577.914
 150  1661.512
 151  1822.161
 152  2079.146
 153  2060.887
 154  2052.414
 155  1981.219
 156  1978.188
 157  2070.28
 158  2014.976
 159  2292.227
 160  2451.35
 161  2732.592
 162  2518.657
 163  2534.211
 164  2375.808
 165  2381.164
 166  2105.731
 167  2000.034
 168  1938.255
 169  1870.197
 170  2382.236
 171  2554.806
 172  2710.889
 173  2241.925
 174  2294.031
 175  2233.122
 176  2121.089
 177  1955.652
 178  2170.651
 179  2202.156
 180  1796.434
 181  1631.53
 182  1829.959
 183  1829.182
 184  1642.642
 185  1807.912
 186  1644.606
 187  1905.235
 188  2117.331
 189  2228.458
 190  2091.54
 191  2073.027
 192  1933.978
 193  1912.287
 194  1898.449
 195  2140.887
 196  2032.717
 197  2295.08
 198  2019.562
 199  2052.973
 200  1939.147
 201  1791.601
 202  2089.016
 203  2380.373
 204  2513.602
 205  2400.465
 206  2282.595
 207  2065.641
 208  1707.509
 209  2046.237
 210  2351.874
 211  2151.217
 212  2342.866
 213  2276.968
 214  2094.31
 215  1863.374
 216  1789.274
 217  1986.634
 218  2246.9
 219  2316.293
 220  2265.542
 221  2263.407
 222  1656.144
 223  1359.604
 224  1925.876
 225  2105.334
 226  2181.34
 227  2266.643
 228  2478.086
 229  2411.155
 230  2280.026
 231  2354.791
 232  2412.952
 233  2363.648
 234  2282.802
 235  2138.839
 236  2074.444
 237  2298.589
 238  2589.691
 239  2555.34
 240  2005.402
 241  2421.782
 242  2504.288
 243  2202.135
 244  2037.254
 245  1960.6
 246  1783.463
 247  1954.168
 248  1869.224
 249  1983.698
 250  1933.459
 251  2045.904
 252  2154.846
 253  1888.855
 254  2047.991
 255  2098.156
 256  2100.849
 257  2293.398
 258  2681.072
 259  2313.174
 260  1963.851
 261  2014.662
 262  2655.314
 263  2197.913
 264  2150.115
 265  2584.031
 266  2201.614
 267  2071.962
 268  1963.166
 269  1873.092
 270  1938.325
 271  2061.848
 272  2045.254
 273  1580.023
 274  1582.956
 275  1707.09
 276  1472.317
 277  1752.715
 278  1719.894
 279  1996.469
 280  2105.149
 281  1979.357
 282  2209.749
 283  1977.053
 284  2000.369
 285  1891.549
 286  2049.42
 287  2045.62
 288  2180.524
 289  2400.567
 290  2333.44
 291  2105.671
 292  1996.336
 293  2034.499
 294  2221.285
 295  2287.098
 296  2826.388
 297  3081.4
 298  3519.635
 299  4149.153
 300  4336.656
 301  4183.341
 302  3739.916
 303  3184.063
 304  2396.36
 305  2254.149
 306  2147.618
 307  1670
 308  1763.709
 309  2148.563
 310  2163.259
 311  2139.551
 312  2452.469
 313  2422.427
 314  2280.209
 315  2289.927
 316  2253.077
 317  1970.406
 318  2349.829
 319  2547.991
 320  2116.361
 321  1807.924
 322  1966.091
 323  1723.375
 324  1654.15
 325  1758.622
 326  2049.478
 327  2101.119
 328  1917.532
 329  1735.791
 330  1918.532
 331  1765.437
 332  1981.425
 333  2022.815
 334  1978.515
 335  2237.44
 336  2192.918
 337  2075.132
 338  2010.883
 339  2317.602
 340  2478.387
 341  2490.858
 342  2586.512
 343  2735.996
 344  2606.644
 345  2872.333
 346  2753.312
 347  2407.37
 348  2114.457
 349  2360.916
 350  2487.299
 351  2308.45
 352  2567.383
 353  2580.703
 354  2129.93
 355  2291.451
 356  2300.567
 357  2456.892
 358  2517.353
 359  2470.829
 360  2536.475
 361  2151.747
 362  2339.252
 363  2511.747
 364  2303.904
 365  2410.171
 366  2362.165
 367  2390.185
 368  2298.197
 369  2456.079
 370  2684.835
 371  2058.877
 372  2276.492
 373  2491.657
 374  2358.977
 375  2225.409
 376  2474.364
 377  2214.693
 378  2180.758
 379  2067.078
 380  2077.487
 381  2029.649
 382  1723.698
 383  1977.495
 384  1762.413
 385  1711.716
 386  2125.153
 387  2147.783
 388  1815.045
 389  2143.711
 390  2218.312
 391  1903.126
 392  2437.491
 393  2287.49
 394  2218.563
 395  2019.023
 396  1966.57
 397  2158.121
 398  1826.608
 399  2091.77
 400  2222.581
 401  2162.682
 402  2439.233
 403  2531.638
 404  2206.823
 405  1963.787
 406  2035.561
 407  2104.126
 408  2295.05
 409  1850.358
 410  2216.719
 411  2397.197
 412  2521.133
 413  2628.391
 414  2259.273
 415  2345.078
 416  2480.539
 417  2422.083
 418  2044.604
 419  1880.435
 420  2024.642
 421  2250.336
 422  2011.288
 423  2076.406
 424  2189.869
 425  1883.656
 426  1863.896
 427  1854.36
 428  1910.763
 429  1270.894
 430  1513.448
 431  2033.93
 432  1951.356
 433  1897.205
 434  2216.669
 435  2334.333
 436  2350.952
 437  2348.189
 438  2290.968
 439  2179.5
 440  2055.654
 441  1964.816
 442  2168.633
 443  1987.25
 444  2148.512
 445  2043.988
 446  1998.037
 447  1976.667
 448  1921.109
 449  1649.954
 450  1879.611
 451  1960.235
 452  1910.886
 453  2165.397
 454  2029.452
 455  1993.165
 456  1964.531
 457  2159.381
 458  2047.084
 459  1837.313
 460  1564.1
 461  1746.449
 462  2092.716
 463  2167.133
 464  1983.143
 465  1999.058
 466  2094.786
 467  2070.375
 468  2169.232
 469  2490.504
 470  2445.128
 471  2044.973
 472  1782.551
 473  1926.114
 474  2071.92
 475  2058.32
 476  2165.656
 477  2036.165
 478  1804.527
 479  1684.521
 480  1561.434
 481  1934.607
 482  2046.675
 483  1973.653
 484  2018.048
 485  2021.202
 486  2244.503
 487  2116.003
 488  2114.87
 489  1953.89
 490  1455.248
 491  1519.25
 492  1797.089
 493  1850.163
 494  1788.051
 495  1687.89
 496  2022.419
 497  2250.117
 498  2190.291
 499  2141.335
 500  1803.739
 501  1805.588
 502  2193.435
 503  1764.618
 504  1954.89
 505  2014.896
 506  2063.082
 507  2084.828
 508  1952.888
 509  1881.418
 510  2096.649
 511  2003.816
