# Input file       =  1209273393.117833_cleaned.dat
# Candidate        =  PSR_0332+5434
# Telescope        =  AR
# Epoch_topo       =  58240.220047660107
# Epoch_bary       =  N/A
# T_sample         =  0.002
# Data Folded      =  7208960
# Data Avg         =  0.436126057423693
# Data StdDev      =  7.17601788219683 
# Profile Bins     =  512
# Profile Avg      =  6140.3843226029  
# Profile StdDev   =  851.500367381113 
# Reduced chi-sqr  =  1.705
# Prob(Noise)      <  3.31e-21   (~9.4 sigma)
# P_topo (ms)      =  714.545621425591  +/- 3.48e-05
# P'_topo (s/s)    =  -0                +/- 1.87e-11
# P''_topo (s/s^2) =  0                 +/- 8.41e-15
# P_bary (ms)      =  N/A
# P'_bary (s/s)    =  N/A
# P''_bary (s/s^2) =  N/A
# P_orb (s)        =  N/A
# asin(i)/c (s)    =  N/A
# eccentricity     =  N/A
# w (rad)          =  N/A
# T_peri           =  N/A
######################################################
   0  6728.562
   1  6388.201
   2  5564.364
   3  5417.457
   4  5319.338
   5  5451.938
   6  5746.008
   7  5995.515
   8  6001.651
   9  5300.213
  10  5382.437
  11  4738.625
  12  5138.767
  13  5526.351
  14  6520.287
  15  7588.564
  16  7917.764
  17  7656.275
  18  6672.044
  19  5991.542
  20  5692.137
  21  5231.233
  22  5683.664
  23  5886.072
  24  6127.132
  25  5859.833
  26  5464.958
  27  5677.508
  28  6028.887
  29  5552.202
  30  5914.443
  31  6916.586
  32  7897.122
  33  7855.802
  34  7782.172
  35  7092.324
  36  6844.747
  37  6380.611
  38  6227.778
  39  6265.587
  40  6170.249
  41  5724.522
  42  4680.824
  43  5322.708
  44  6013.365
  45  5952.541
  46  6222.783
  47  7316.27
  48  7835.667
  49  7532.446
  50  7110.351
  51  6391.386
  52  6727.639
  53  5874.817
  54  6214.034
  55  6529.062
  56  6504.692
  57  6475.703
  58  5652.296
  59  5311.885
  60  4599.271
  61  5457.647
  62  5900.951
  63  6740.988
  64  7602.363
  65  7140.344
  66  7278.853
  67  6496.119
  68  6450.305
  69  6206.742
  70  5922.005
  71  5982.396
  72  6193.898
  73  6808.277
  74  6021.203
  75  5397.742
  76  5010.264
  77  5133.004
  78  5166.27
  79  5663.656
  80  6750.642
  81  7499.244
  82  7393.042
  83  6365.315
  84  6145.011
  85  5093.31
  86  5456.133
  87  5664.3
  88  5786.288
  89  5847.515
  90  6121.242
  91  5950.999
  92  5588.05
  93  5583.385
  94  4910.337
  95  4934.691
  96  6100.701
  97  7456.178
  98  8298.688
  99  7556.703
 100  7006.868
 101  6351.178
 102  6207.725
 103  6074.122
 104  5615.608
 105  5677.309
 106  6050.982
 107  6031.869
 108  5861.566
 109  5466.299
 110  5506.731
 111  5864.415
 112  5603.309
 113  6410.496
 114  7165.395
 115  7492.585
 116  7319.601
 117  7016.382
 118  6753.175
 119  5961.38
 120  5977.228
 121  6289.993
 122  6057.925
 123  6454.944
 124  6005.786
 125  5511.827
 126  5830.958
 127  6049.212
 128  6188.036
 129  6290.245
 130  6828.156
 131  7709.279
 132  7459.317
 133  7176.371
 134  6571.007
 135  6897.124
 136  6407.898
 137  6347.557
 138  6473.081
 139  6211.336
 140  6232.944
 141  5718.489
 142  5391.514
 143  5620.324
 144  6244.44
 145  6419.928
 146  6631.436
 147  7858.631
 148  7761.192
 149  7270.689
 150  6326.239
 151  6187.814
 152  6057.471
 153  6260.792
 154  6397.75
 155  6413.586
 156  6322.301
 157  5570.331
 158  5160.542
 159  4792.789
 160  5651.62
 161  5530.074
 162  6879.13
 163  7638.885
 164  7504.556
 165  7308.895
 166  6290.291
 167  6585.921
 168  6161.268
 169  5836.811
 170  5764.036
 171  5924.054
 172  6424.136
 173  6209.364
 174  6049.785
 175  5099.323
 176  5196.857
 177  5117.971
 178  5377.145
 179  6370.239
 180  7432.829
 181  7880.866
 182  7240.202
 183  6702.14
 184  5793.429
 185  5905.72
 186  5951.925
 187  5969.666
 188  5885.76
 189  6059.758
 190  5559.639
 191  4793.523
 192  5505.132
 193  5308.886
 194  5375.277
 195  6185.227
 196  7154.342
 197  7887.849
 198  7555.522
 199  7187.535
 200  6927.223
 201  6558.034
 202  6472.135
 203  5739.489
 204  5827.899
 205  6007.145
 206  6368.604
 207  6066.484
 208  5932.111
 209  6140.14
 210  6203.251
 211  6583.517
 212  6298.956
 213  6853.01
 214  7977.829
 215  7419.921
 216  7366.168
 217  6576.48
 218  6314.471
 219  6215.645
 220  6243.733
 221  6245.989
 222  5876.944
 223  5877.837
 224  5355.736
 225  5401.733
 226  5613.473
 227  5840.797
 228  5968.214
 229  6904.894
 230  7795.882
 231  7181.295
 232  6674.948
 233  6031.338
 234  6420.004
 235  5875.496
 236  6128.235
 237  6541.903
 238  6476.99
 239  6170.673
 240  5190.66
 241  4616.749
 242  4723.724
 243  5615.335
 244  6071.9
 245  6914.311
 246  7483.877
 247  7003.44
 248  6534.186
 249  6313.221
 250  6394.014
 251  5774.395
 252  5394.785
 253  5151.435
 254  5668.968
 255  6295.628
 256  5514.489
 257  4971.133
 258  4175.734
 259  4932.849
 260  4958.086
 261  5420.353
 262  6833.788
 263  7565.943
 264  7660.655
 265  6409.083
 266  6154.119
 267  5625.949
 268  5746.533
 269  6132.913
 270  6426.406
 271  6253.777
 272  6131.246
 273  5864.222
 274  5475.784
 275  6094.104
 276  5706.61
 277  5430.942
 278  6397.398
 279  7057.605
 280  7603.827
 281  7646.05
 282  6968.613
 283  6606.883
 284  6235.904
 285  6190.797
 286  5780.886
 287  5793.983
 288  6086.909
 289  5851.617
 290  5729.632
 291  5673.13
 292  6124.709
 293  6165.862
 294  6433.041
 295  7118.221
 296  6926.802
 297  7776.016
 298  7729.402
 299  8031.864
 300  7817.348
 301  7987.513
 302  7610.029
 303  6915.182
 304  6858.135
 305  6409.167
 306  5545.753
 307  4723.925
 308  5894.179
 309  5957.534
 310  6198.867
 311  6705.482
 312  7425.925
 313  7839.482
 314  7460.963
 315  6754.46
 316  6086.854
 317  6033.706
 318  5639.449
 319  5914.16
 320  6530.429
 321  6088.804
 322  6270.726
 323  5170.566
 324  4779.861
 325  4568.29
 326  5283.688
 327  6152.486
 328  6662.692
 329  7494.183
 330  6670.819
 331  6279.638
 332  5380.407
 333  5324.928
 334  5186.957
 335  5534.969
 336  6036.34
 337  6318.244
 338  6368.871
 339  5361.423
 340  4890.845
 341  4190.311
 342  4547.978
 343  4930.823
 344  5954.573
 345  6865.023
 346  7115.496
 347  7200.367
 348  5857.462
 349  5477.143
 350  5262.363
 351  5586.872
 352  5635.859
 353  5873.799
 354  6254.873
 355  5633.952
 356  5459.531
 357  5314.042
 358  5257.022
 359  4778.205
 360  5414.421
 361  6406.476
 362  7280.45
 363  7674.637
 364  7380.97
 365  6874.916
 366  6106.131
 367  5838.458
 368  5710.98
 369  5897.698
 370  5739.07
 371  5768.781
 372  5338.373
 373  5714.918
 374  5561.402
 375  5280.106
 376  5616.639
 377  6204.326
 378  7106.191
 379  7571.83
 380  7657.969
 381  6636.555
 382  6496.213
 383  6233.584
 384  6003.176
 385  6010.404
 386  6242.722
 387  6489.522
 388  5629.245
 389  5066.062
 390  4267.188
 391  5572.87
 392  5720.142
 393  5862.743
 394  6464.227
 395  7096.187
 396  7626.427
 397  6297.348
 398  6298.865
 399  5995.529
 400  5892.172
 401  5676.333
 402  6074.707
 403  6679.956
 404  5986.465
 405  5393.294
 406  4308.924
 407  5021.542
 408  4873.185
 409  5441.332
 410  6440.723
 411  7173.979
 412  8009.03
 413  6773.39
 414  5956.943
 415  5009.719
 416  5789.392
 417  5605.457
 418  5978.405
 419  6592.981
 420  6014.775
 421  5975.235
 422  5294.572
 423  4916.779
 424  4303.105
 425  4607.396
 426  5405.041
 427  6235.513
 428  7201.767
 429  6640.841
 430  6404.542
 431  5955.073
 432  5661.023
 433  5154.456
 434  5265.425
 435  5752.077
 436  5984.157
 437  5921.917
 438  5555.634
 439  5589.25
 440  5272.638
 441  5119.561
 442  5113.764
 443  5775.373
 444  6895.839
 445  7609.417
 446  7116.001
 447  6148.915
 448  5985.149
 449  5690.358
 450  5495.945
 451  5039.064
 452  5874.592
 453  5931.659
 454  5333.707
 455  5159.103
 456  5098.694
 457  5540.438
 458  5597.467
 459  5114.607
 460  5851.208
 461  7306.427
 462  7676.855
 463  7092.452
 464  6308.893
 465  6410.878
 466  5999.198
 467  6137.052
 468  6220.278
 469  6393.019
 470  6681.288
 471  5604.137
 472  5527.477
 473  5318.478
 474  5527.212
 475  5843.82
 476  6510.333
 477  7394.036
 478  7088.024
 479  6935.922
 480  6341.89
 481  6347.467
 482  5792.225
 483  5842.497
 484  6200.311
 485  6350.482
 486  6156.109
 487  5378.379
 488  4704.352
 489  4017.92
 490  4925
 491  5488.88
 492  6318.365
 493  6835.879
 494  7222.488
 495  7315.514
 496  6517.235
 497  6008.45
 498  5392.461
 499  5603.42
 500  5407.976
 501  5256.028
 502  6332.163
 503  6030.818
 504  5918.229
 505  5062.469
 506  4707.728
 507  4238.292
 508  4692.025
 509  5825.115
 510  6864.653
 511  7275.247
