# Input file       =  1209647534.116264_cleaned.dat
# Candidate        =  PSR_0332+5434
# Telescope        =  AR
# Epoch_topo       =  58244.550383290094
# Epoch_bary       =  N/A
# T_sample         =  0.002
# Data Folded      =  7340032
# Data Avg         =  0.237414397957245
# Data StdDev      =  4.37339954997161 
# Profile Bins     =  1024
# Profile Avg      =  1701.7831259764  
# Profile StdDev   =  370.269682980694 
# Reduced chi-sqr  =  0.992
# Prob(Noise)      <  0.564   (~0.0 sigma)
# P_topo (ms)      =  714.541989021144  +/- 0.000471
# P'_topo (s/s)    =  -0                +/- 2.48e-10
# P''_topo (s/s^2) =  0                 +/- 1.1e-13
# P_bary (ms)      =  N/A
# P'_bary (s/s)    =  N/A
# P''_bary (s/s^2) =  N/A
# P_orb (s)        =  N/A
# asin(i)/c (s)    =  N/A
# eccentricity     =  N/A
# w (rad)          =  N/A
# T_peri           =  N/A
######################################################
   0  1580.258
   1  1695.314
   2  1759.185
   3  1625.687
   4  1570.475
   5  1531.383
   6  1626.534
   7  1541.419
   8  1617.862
   9  1710.508
  10  1793.017
  11  1679.478
  12  1558.06
  13  1558.942
  14  1655.186
  15  1631.228
  16  1568.492
  17  1433.497
  18  1378.017
  19  1441.163
  20  1543.489
  21  1522.876
  22  1408.719
  23  1374.727
  24  1418.192
  25  1374.165
  26  1400.921
  27  1458.664
  28  1622.207
  29  1588.128
  30  1469.639
  31  1417.31
  32  1397.87
  33  1463.656
  34  1497.057
  35  1579.41
  36  1584.503
  37  1502.407
  38  1549.518
  39  1448.993
  40  1388.176
  41  1353.374
  42  1373.728
  43  1349.129
  44  1289.132
  45  1302.568
  46  1389.617
  47  1509.243
  48  1561.804
  49  1534.052
  50  1484.569
  51  1470.1
  52  1472.382
  53  1552.974
  54  1586.583
  55  1680.459
  56  1726.842
  57  1678.032
  58  1562.449
  59  1484.222
  60  1492.951
  61  1562.345
  62  1626.047
  63  1660.444
  64  1760.296
  65  1660.537
  66  1604.429
  67  1615.472
  68  1765.634
  69  1861.663
  70  1965.115
  71  2046.152
  72  2108.768
  73  2012.161
  74  1842.987
  75  1800.778
  76  1872.442
  77  1982.238
  78  2022.739
  79  1960.58
  80  1844.766
  81  1811.06
  82  1794.27
  83  1747.683
  84  1642.525
  85  1531.973
  86  1624.198
  87  1645.796
  88  1709.226
  89  1704.716
  90  1670.017
  91  1689.573
  92  1613.14
  93  1489.972
  94  1480.062
  95  1563.557
  96  1674.215
  97  1660.522
  98  1608.838
  99  1575.134
 100  1643.12
 101  1621.063
 102  1572.307
 103  1453.281
 104  1432.04
 105  1534.619
 106  1660.512
 107  1737.103
 108  1541.647
 109  1492.919
 110  1693.592
 111  1732.525
 112  1613.669
 113  1437.352
 114  1639.233
 115  1810.035
 116  1847.57
 117  1887.417
 118  1827.15
 119  1768.997
 120  1626.513
 121  1583.012
 122  1573.776
 123  1671.771
 124  1684.466
 125  1682.205
 126  1695.402
 127  1749.222
 128  1814.274
 129  1904.744
 130  1982.621
 131  1881.609
 132  1732.839
 133  1737.907
 134  1829.912
 135  1807.572
 136  1787.489
 137  1862.184
 138  1886.142
 139  1797.1
 140  1649.255
 141  1716.689
 142  1763.241
 143  1917.794
 144  1881.819
 145  1834.144
 146  1661.27
 147  1624.671
 148  1654.347
 149  1691.694
 150  1654.857
 151  1647.345
 152  1571.914
 153  1562.042
 154  1561.786
 155  1627.177
 156  1681.867
 157  1735.256
 158  1646.838
 159  1700.391
 160  1716.015
 161  1814.546
 162  1750.746
 163  1793.187
 164  1868.01
 165  1758.364
 166  1693.797
 167  1714.447
 168  1847.312
 169  1807.323
 170  1649.911
 171  1709.859
 172  1911.628
 173  1944.577
 174  1875.76
 175  1832.734
 176  1890.929
 177  1785.992
 178  1734.566
 179  1743.18
 180  1849.11
 181  1896.503
 182  1957.057
 183  1825.284
 184  1768.619
 185  1809.006
 186  1906.173
 187  1925.742
 188  1919.246
 189  1922.969
 190  1904.221
 191  1874.798
 192  1820.953
 193  1837.172
 194  1928.633
 195  1886.628
 196  1887.267
 197  1822.058
 198  1828.491
 199  1714.423
 200  1739.829
 201  1736.639
 202  1782.19
 203  1753.751
 204  1750.836
 205  1716.318
 206  1722.511
 207  1580.937
 208  1606.432
 209  1497.65
 210  1534.598
 211  1516.241
 212  1593.287
 213  1634.787
 214  1670.164
 215  1631.643
 216  1584.459
 217  1503.192
 218  1452.476
 219  1481.605
 220  1596.897
 221  1695.388
 222  1686.791
 223  1571.136
 224  1509.979
 225  1576.183
 226  1492.752
 227  1401.569
 228  1262.247
 229  1385.368
 230  1416.797
 231  1420.852
 232  1482.529
 233  1622.105
 234  1703.857
 235  1747.099
 236  1713.876
 237  1677.948
 238  1567.5
 239  1536.202
 240  1579.458
 241  1728.66
 242  1837.416
 243  1872.928
 244  1760.36
 245  1645.201
 246  1554.854
 247  1585.823
 248  1563.644
 249  1593.604
 250  1614.799
 251  1658.377
 252  1546.162
 253  1474.111
 254  1526.322
 255  1590.606
 256  1659.905
 257  1672.857
 258  1650.979
 259  1683.912
 260  1564.8
 261  1572.15
 262  1628.87
 263  1592.262
 264  1483.593
 265  1535.184
 266  1556.371
 267  1646.71
 268  1651.956
 269  1578.697
 270  1542.045
 271  1521.429
 272  1676.391
 273  1579.823
 274  1525.511
 275  1401.286
 276  1449.607
 277  1595.205
 278  1659.121
 279  1696.315
 280  1710.991
 281  1674.485
 282  1515.055
 283  1379.68
 284  1491.026
 285  1470.646
 286  1385.207
 287  1210.835
 288  1232.397
 289  1381.726
 290  1604.919
 291  1682.223
 292  1724.011
 293  1735.524
 294  1847.024
 295  1851.249
 296  1825.902
 297  1755.496
 298  1687.684
 299  1680.539
 300  1852.814
 301  1824.332
 302  1741.984
 303  1650.98
 304  1700.24
 305  1685.308
 306  1765.835
 307  1847.349
 308  1831.435
 309  1684.086
 310  1507.901
 311  1456.44
 312  1456.175
 313  1498.814
 314  1589.836
 315  1658.47
 316  1725.075
 317  1757.125
 318  1663.832
 319  1654.052
 320  1615.56
 321  1633.162
 322  1657.233
 323  1704.198
 324  1762.089
 325  1720.96
 326  1742.424
 327  1745.216
 328  1755.494
 329  1770.16
 330  1723.451
 331  1707.907
 332  1739.616
 333  1769.842
 334  1660.423
 335  1541.414
 336  1541.979
 337  1620.83
 338  1499.491
 339  1432.373
 340  1466.955
 341  1545.073
 342  1568.099
 343  1552.345
 344  1657.764
 345  1593.576
 346  1497.762
 347  1543.063
 348  1670.276
 349  1742.397
 350  1740.522
 351  1636.128
 352  1603.876
 353  1566.556
 354  1578.802
 355  1650.394
 356  1546.529
 357  1546.286
 358  1491.168
 359  1583.142
 360  1663.903
 361  1593.303
 362  1521.208
 363  1543.426
 364  1692.245
 365  1697.737
 366  1598.973
 367  1485.24
 368  1445.765
 369  1536.904
 370  1588.481
 371  1533.227
 372  1585.777
 373  1693.517
 374  1705.437
 375  1512.152
 376  1367.308
 377  1445.723
 378  1498.634
 379  1495.478
 380  1457.027
 381  1388.071
 382  1399.297
 383  1470.037
 384  1555.592
 385  1393.988
 386  1311.128
 387  1306.555
 388  1354.704
 389  1316.491
 390  1373.907
 391  1472.045
 392  1482.743
 393  1369.326
 394  1294.339
 395  1363.193
 396  1369.889
 397  1377.674
 398  1330.112
 399  1356.932
 400  1264.798
 401  1293.401
 402  1435.659
 403  1549.446
 404  1431.224
 405  1305.599
 406  1414.306
 407  1576.566
 408  1588.985
 409  1554.858
 410  1522.209
 411  1599.78
 412  1573.099
 413  1527.377
 414  1446.815
 415  1537.8
 416  1606.024
 417  1707.129
 418  1729.274
 419  1729.805
 420  1661.97
 421  1605.979
 422  1604.746
 423  1615.67
 424  1579.972
 425  1659.91
 426  1635.746
 427  1636.951
 428  1606.875
 429  1677.786
 430  1798.387
 431  1835.944
 432  1909.885
 433  1802.85
 434  1826.998
 435  1771.268
 436  1772.322
 437  1718.907
 438  1781.304
 439  1775.93
 440  1807.581
 441  1750.677
 442  1685.727
 443  1583.942
 444  1572.302
 445  1662.692
 446  1675.748
 447  1681.906
 448  1692.313
 449  1708.063
 450  1657.622
 451  1654.771
 452  1647.435
 453  1729.375
 454  1804.711
 455  1847.269
 456  1773.873
 457  1831.222
 458  1926.741
 459  1968.792
 460  1859.553
 461  1785.267
 462  1842.008
 463  1929.956
 464  1942.907
 465  1902.084
 466  1869.571
 467  1998.767
 468  1939.673
 469  1859.596
 470  1740.091
 471  1799.908
 472  1872.844
 473  1863.193
 474  1902.038
 475  1938.551
 476  1944.929
 477  1860.059
 478  1781.061
 479  1876.015
 480  1990.482
 481  2086.992
 482  2153.864
 483  2162.604
 484  1986.707
 485  1866.29
 486  1941.852
 487  2100.782
 488  2105.104
 489  2010.022
 490  1985.184
 491  2060.489
 492  2053.478
 493  2029.37
 494  2128.823
 495  2167.387
 496  2111.234
 497  1953.609
 498  2019.548
 499  1989.559
 500  1930.246
 501  1842.591
 502  1902.493
 503  1929.885
 504  1923.426
 505  1955.367
 506  2092.717
 507  2185.884
 508  2158.322
 509  2150.709
 510  2217.705
 511  2184.539
 512  2073.384
 513  2050.85
 514  2074.828
 515  1910.173
 516  1771.265
 517  1714.297
 518  1696.139
 519  1791.833
 520  1821.91
 521  1862.641
 522  1826.2
 523  1883.521
 524  1973.302
 525  1889.786
 526  1772.921
 527  1742.602
 528  1789.945
 529  1753.975
 530  1749.961
 531  1872.435
 532  1907.114
 533  1829.342
 534  1709.031
 535  1624.666
 536  1667.648
 537  1654.326
 538  1736.328
 539  1705.374
 540  1725.786
 541  1663.841
 542  1673.547
 543  1607.69
 544  1652.415
 545  1663.122
 546  1676.01
 547  1677.234
 548  1741.117
 549  1848.007
 550  1825.697
 551  1716.599
 552  1570.131
 553  1585.122
 554  1716.764
 555  1805.499
 556  1771.161
 557  1729.818
 558  1726.464
 559  1687.786
 560  1664.148
 561  1550.092
 562  1598.249
 563  1580.182
 564  1702.883
 565  1722.856
 566  1786.203
 567  1695.305
 568  1699.603
 569  1671.935
 570  1677.932
 571  1580.523
 572  1551.853
 573  1588.376
 574  1595.888
 575  1561.912
 576  1591.754
 577  1734.41
 578  1901.707
 579  1918.525
 580  1972.258
 581  1997.609
 582  1988.056
 583  1814.611
 584  1700.779
 585  1789.02
 586  1955.45
 587  2130.974
 588  2143.577
 589  2128.24
 590  2092.827
 591  2156.15
 592  2138.396
 593  2091.748
 594  2020.189
 595  2142.49
 596  2247.217
 597  2409.249
 598  2478.772
 599  2660.066
 600  2883.576
 601  3083.511
 602  3087.252
 603  2853.781
 604  2634.739
 605  2520.508
 606  2343.059
 607  2069.428
 608  1937.422
 609  1842.915
 610  1829.554
 611  1723.064
 612  1744.4
 613  1806.413
 614  1845.433
 615  1906.293
 616  1974.342
 617  2030.448
 618  2010.705
 619  1981.379
 620  1863.674
 621  1786.712
 622  1792.802
 623  1926.018
 624  1898.327
 625  1761.28
 626  1557.078
 627  1417.7
 628  1404.114
 629  1524.523
 630  1560.893
 631  1554.318
 632  1505.832
 633  1428.693
 634  1381.321
 635  1494.005
 636  1628.132
 637  1626.114
 638  1594.038
 639  1674.138
 640  1751.639
 641  1731.528
 642  1694.628
 643  1661.716
 644  1657.729
 645  1641.285
 646  1744.625
 647  1750.297
 648  1741.66
 649  1723.652
 650  1759.481
 651  1774.374
 652  1809.257
 653  1774.648
 654  1762.744
 655  1751.359
 656  1763.143
 657  1723.981
 658  1708.04
 659  1740.334
 660  1694.417
 661  1621.297
 662  1654.705
 663  1704.37
 664  1839.342
 665  1968.476
 666  1949.755
 667  1930.261
 668  1876.543
 669  1888.603
 670  1839.534
 671  1851.522
 672  2007.471
 673  2047.118
 674  1933.985
 675  1859.062
 676  1800.753
 677  1775.188
 678  1684.143
 679  1663.334
 680  1712.924
 681  1720.729
 682  1666.8
 683  1696.239
 684  1721.242
 685  1817.346
 686  1906.42
 687  1899.864
 688  1924.479
 689  2006.81
 690  1955.636
 691  1688.892
 692  1596.082
 693  1613.181
 694  1867.348
 695  1864.793
 696  1888.65
 697  1839.746
 698  1831.363
 699  1750.009
 700  1724.222
 701  1815.311
 702  1875.341
 703  1746.155
 704  1671.197
 705  1678.578
 706  1738.309
 707  1703.437
 708  1621.739
 709  1625.734
 710  1591.341
 711  1638.548
 712  1667.155
 713  1734.034
 714  1750.55
 715  1747.059
 716  1688.841
 717  1553.084
 718  1527.786
 719  1536.778
 720  1551.651
 721  1588.824
 722  1574.24
 723  1634.068
 724  1543.839
 725  1383.943
 726  1319.421
 727  1396.815
 728  1579.212
 729  1630.553
 730  1689.111
 731  1743.844
 732  1646.526
 733  1514.817
 734  1389.125
 735  1321.804
 736  1285.261
 737  1272.481
 738  1431.554
 739  1549.733
 740  1570.303
 741  1521.233
 742  1503.041
 743  1477.366
 744  1456.609
 745  1369.906
 746  1454.89
 747  1524.54
 748  1670.605
 749  1821.07
 750  1838.583
 751  1766.309
 752  1717.831
 753  1754.517
 754  1858.786
 755  1882.94
 756  1766.51
 757  1584.241
 758  1459.229
 759  1415.381
 760  1381.509
 761  1462.776
 762  1450.94
 763  1488.807
 764  1468.231
 765  1508.562
 766  1484.908
 767  1432.472
 768  1390.687
 769  1387.911
 770  1449.478
 771  1450.038
 772  1478.692
 773  1509.752
 774  1588.175
 775  1608.122
 776  1597.285
 777  1602.943
 778  1567.018
 779  1527.682
 780  1395.216
 781  1386.343
 782  1478.231
 783  1509.134
 784  1578.403
 785  1655.717
 786  1687.984
 787  1778.894
 788  1841.531
 789  1947.453
 790  1790.313
 791  1770.925
 792  1853.564
 793  1927.019
 794  1851.763
 795  1663.286
 796  1563.972
 797  1585.161
 798  1570.266
 799  1600.26
 800  1571.125
 801  1670.023
 802  1664.304
 803  1562.324
 804  1504.737
 805  1510.815
 806  1692.926
 807  1767.552
 808  1812.818
 809  1695.058
 810  1614.721
 811  1497.595
 812  1527.922
 813  1483.278
 814  1451.163
 815  1396.12
 816  1472.413
 817  1528.195
 818  1598.249
 819  1638.505
 820  1608.303
 821  1563.246
 822  1588.361
 823  1698.515
 824  1780.597
 825  1697.144
 826  1627.869
 827  1578.2
 828  1713.71
 829  1800.676
 830  1853.704
 831  1915.026
 832  2052.448
 833  2127.419
 834  1965.113
 835  1871.972
 836  1832.347
 837  1878.686
 838  1814.407
 839  1838.148
 840  1928.804
 841  2011.374
 842  2061.295
 843  1894.015
 844  1755.682
 845  1640.813
 846  1690.098
 847  1805.668
 848  1893.844
 849  1910.853
 850  1870.548
 851  1747.808
 852  1674.831
 853  1746.247
 854  1763.413
 855  1772.654
 856  1616.531
 857  1703.912
 858  1689.562
 859  1710.401
 860  1682.114
 861  1764.635
 862  1665.978
 863  1677.843
 864  1620.668
 865  1640.011
 866  1693.717
 867  1713.973
 868  1847.875
 869  1828.787
 870  1812.981
 871  1780.525
 872  1706.461
 873  1683.643
 874  1831.491
 875  2072.725
 876  2178.913
 877  2040.456
 878  1903.178
 879  1864.495
 880  1863.992
 881  1817.834
 882  1797.222
 883  1827.666
 884  1874.411
 885  1809.05
 886  1722.293
 887  1622.382
 888  1589.156
 889  1595.89
 890  1650.037
 891  1725.276
 892  1769.087
 893  1756.848
 894  1732.188
 895  1732.97
 896  1747.225
 897  1714.052
 898  1671.005
 899  1647.042
 900  1589.523
 901  1471.436
 902  1437.342
 903  1607.806
 904  1693.493
 905  1747.713
 906  1698.409
 907  1736.339
 908  1636.053
 909  1674.804
 910  1749.791
 911  1810.747
 912  1687.373
 913  1626.702
 914  1538.615
 915  1528.378
 916  1664.512
 917  1778.341
 918  1857.807
 919  1751.74
 920  1668.566
 921  1655.57
 922  1592.736
 923  1579.022
 924  1479.968
 925  1557.139
 926  1590.655
 927  1747.996
 928  1761.38
 929  1795.463
 930  1738.341
 931  1828.465
 932  1793.97
 933  1754.762
 934  1798.194
 935  1937.214
 936  1898.242
 937  1740.9
 938  1554.254
 939  1525.867
 940  1522.886
 941  1541.361
 942  1624.384
 943  1678.426
 944  1781.51
 945  1784.221
 946  1861.398
 947  1803.576
 948  1758.332
 949  1780.801
 950  1908.574
 951  2010.81
 952  1864.456
 953  1893.339
 954  2000.466
 955  2105.2
 956  1902.354
 957  1700.542
 958  1657.095
 959  1721.647
 960  1892.721
 961  1939.885
 962  1900.905
 963  1802
 964  1788.192
 965  1883.53
 966  1963.935
 967  1932.082
 968  1917.101
 969  1804.25
 970  1770.295
 971  1803.714
 972  1969.624
 973  1917.948
 974  1761.963
 975  1650.496
 976  1663.08
 977  1585.47
 978  1618.84
 979  1545.503
 980  1494.861
 981  1384.987
 982  1377.363
 983  1419.462
 984  1423.774
 985  1428.111
 986  1478.473
 987  1574.157
 988  1578.528
 989  1648.043
 990  1631.443
 991  1652.056
 992  1513.076
 993  1566.759
 994  1535.976
 995  1591.792
 996  1571.986
 997  1708.572
 998  1841.754
 999  1768.14
1000  1637.604
1001  1649.182
1002  1684.529
1003  1738.868
1004  1605.087
1005  1652.983
1006  1695.909
1007  1683.355
1008  1817.256
1009  1858.17
1010  1850.964
1011  1725.911
1012  1696.601
1013  1597.396
1014  1592.406
1015  1599.964
1016  1641.965
1017  1492.124
1018  1534.925
1019  1535.133
1020  1591.755
1021  1532.726
1022  1525.092
1023  1449.086
