# Input file       =  1209302938.11285_cleaned.dat
# Candidate        =  PSR_0332+5434
# Telescope        =  AR
# Epoch_topo       =  58240.562003620951
# Epoch_bary       =  N/A
# T_sample         =  0.002
# Data Folded      =  7340032
# Data Avg         =  0.252881769855906
# Data StdDev      =  5.91320532778862 
# Profile Bins     =  1024
# Profile Avg      =  1812.6904103814  
# Profile StdDev   =  500.635863954907 
# Reduced chi-sqr  =  0.654
# Prob(Noise)      <  1   (~0.0 sigma)
# P_topo (ms)      =  714.545658615598  +/- 0.000858
# P'_topo (s/s)    =  -0                +/- 4.53e-10
# P''_topo (s/s^2) =  0                 +/- 2e-13
# P_bary (ms)      =  N/A
# P'_bary (s/s)    =  N/A
# P''_bary (s/s^2) =  N/A
# P_orb (s)        =  N/A
# asin(i)/c (s)    =  N/A
# eccentricity     =  N/A
# w (rad)          =  N/A
# T_peri           =  N/A
######################################################
   0  1839.397
   1  1699.557
   2  1647.869
   3  1598.626
   4  1623.191
   5  1616.208
   6  1609.223
   7  1596.838
   8  1512.998
   9  1630.058
  10  1707.877
  11  1676.838
  12  1754.843
  13  1884.728
  14  1943.188
  15  1820.514
  16  1660.173
  17  1762.448
  18  1880.641
  19  1964.133
  20  1881.334
  21  1826.605
  22  1935.021
  23  1912.5
  24  1958.836
  25  1896.99
  26  1967.388
  27  1933.25
  28  2034.443
  29  2065.769
  30  2089.744
  31  2067.531
  32  2063.646
  33  1954.957
  34  1836.141
  35  1853.648
  36  1919.443
  37  1962.35
  38  2031.761
  39  1974.252
  40  1951.1
  41  1889.159
  42  1764.703
  43  1688.917
  44  1731.106
  45  1728.635
  46  1677.095
  47  1606.705
  48  1665.796
  49  1596.631
  50  1453.939
  51  1538.426
  52  1739.37
  53  1798.735
  54  1917.866
  55  1898.404
  56  2045.285
  57  2009.24
  58  1891.2
  59  1970.565
  60  2062.242
  61  2120.506
  62  2066.65
  63  1974.198
  64  1838.078
  65  1802.376
  66  1889.849
  67  1924.522
  68  1856.317
  69  1854.821
  70  1959.42
  71  2105.813
  72  2194.096
  73  2263.414
  74  2254.574
  75  2174.612
  76  1859.699
  77  1760.674
  78  1885.194
  79  1901.773
  80  1891.214
  81  1897.48
  82  1922.244
  83  1965.737
  84  2056.867
  85  2146.236
  86  2104.805
  87  2093.036
  88  2206.949
  89  2106.942
  90  2027.61
  91  1838.522
  92  1877.58
  93  1902.011
  94  1818.115
  95  1744.045
  96  1773.514
  97  1821.992
  98  1772.866
  99  1728.197
 100  1666.631
 101  1746.73
 102  1714.15
 103  1835.191
 104  1884.267
 105  1830.308
 106  1761.05
 107  1760.894
 108  1760.683
 109  1684.012
 110  1587.845
 111  1613.369
 112  1542.697
 113  1509.73
 114  1541.138
 115  1525.658
 116  1559.985
 117  1614.527
 118  1645.371
 119  1807.212
 120  1828.32
 121  1824.812
 122  1894.095
 123  1913.941
 124  1844.585
 125  1808.888
 126  1782.948
 127  1841.186
 128  1840.718
 129  1830.145
 130  1829.625
 131  1760.041
 132  1865.413
 133  1867.813
 134  2062.563
 135  2095.426
 136  1940.721
 137  1800.296
 138  1784.358
 139  2006.931
 140  2098.792
 141  2112.188
 142  2040.451
 143  2071.755
 144  2006.944
 145  1973.854
 146  1849.986
 147  1889.652
 148  2110.671
 149  2133.563
 150  2032.156
 151  1807.758
 152  1720.354
 153  1966.489
 154  2118.383
 155  2364.201
 156  2281.258
 157  2068.461
 158  1912.186
 159  1847.343
 160  1853.35
 161  1880.016
 162  1862.2
 163  1789.797
 164  1705.978
 165  1665.913
 166  1639.559
 167  1668.272
 168  1767.636
 169  1911.002
 170  1916.754
 171  1817.108
 172  1623.047
 173  1476.66
 174  1563.881
 175  1495.983
 176  1534.508
 177  1544.279
 178  1644.034
 179  1624.412
 180  1472.645
 181  1485.002
 182  1558.008
 183  1610.143
 184  1800.092
 185  1925.439
 186  2065.1
 187  1942.111
 188  1949.656
 189  1819.72
 190  1835.116
 191  1670.988
 192  1734.734
 193  1559.922
 194  1445.71
 195  1495.947
 196  1663.774
 197  1716.018
 198  1628.326
 199  1743.238
 200  1852.411
 201  1777.897
 202  1678.09
 203  1636.475
 204  1646.234
 205  1750.65
 206  1862.623
 207  1840.842
 208  1781.016
 209  1650.752
 210  1640.765
 211  1685.04
 212  1695.923
 213  1727.121
 214  1827.551
 215  1924.235
 216  1876.704
 217  1726.433
 218  1813.221
 219  1875.579
 220  1869.43
 221  1875.579
 222  1885.411
 223  1903.657
 224  1778.258
 225  1715.649
 226  1773.231
 227  1736.818
 228  1764.666
 229  1818.516
 230  1779.698
 231  1720.654
 232  1824.495
 233  1794.026
 234  1758.893
 235  1703.742
 236  1762.066
 237  1758.672
 238  1526.368
 239  1489.504
 240  1449.896
 241  1642.87
 242  1846.182
 243  1959.293
 244  2105.696
 245  1965.798
 246  1877.052
 247  1834.473
 248  1708.504
 249  1736.098
 250  1698.104
 251  1763.769
 252  1907.107
 253  1981.432
 254  1956.524
 255  2012.731
 256  1939.204
 257  1919.858
 258  1751.783
 259  1865.196
 260  1816.135
 261  1823.621
 262  1828.862
 263  1769.181
 264  1780.616
 265  1817.013
 266  1876.4
 267  1859.62
 268  1856.945
 269  1882.001
 270  1942.521
 271  1843.865
 272  1651.501
 273  1484.466
 274  1504.699
 275  1573.103
 276  1710.917
 277  1767.527
 278  1838.516
 279  1705.231
 280  1626.48
 281  1769.416
 282  1946.999
 283  1945.933
 284  1767.427
 285  1729.061
 286  1761.979
 287  1647.658
 288  1655.206
 289  1663.199
 290  1728.745
 291  1664.492
 292  1501.247
 293  1415.319
 294  1431.111
 295  1543.424
 296  1725.012
 297  1710.46
 298  1787.696
 299  1720.874
 300  1629.392
 301  1610.187
 302  1675.072
 303  1867.592
 304  1965.233
 305  1956.872
 306  1852.086
 307  1676.37
 308  1577.783
 309  1652.919
 310  1764.911
 311  1767.756
 312  1787.154
 313  1719.206
 314  1711.1
 315  1735.189
 316  1701.692
 317  1701.058
 318  1606.464
 319  1544.809
 320  1603.06
 321  1667.507
 322  1673.042
 323  1565.209
 324  1638.875
 325  1746.532
 326  1931.609
 327  1817.884
 328  1741.745
 329  1578.61
 330  1631.529
 331  1520.721
 332  1558.641
 333  1534.024
 334  1640.629
 335  1655.282
 336  1636.616
 337  1561.842
 338  1668.134
 339  1640.57
 340  1593.986
 341  1522.761
 342  1440.138
 343  1563.507
 344  1511.198
 345  1571.299
 346  1630.045
 347  1761.537
 348  1785.016
 349  1640.503
 350  1586.118
 351  1615.314
 352  1747.163
 353  1881.471
 354  1802.91
 355  1622.532
 356  1489.568
 357  1587.949
 358  1738.374
 359  1892.807
 360  1874.723
 361  1978.01
 362  1993.739
 363  2013.257
 364  1958.103
 365  1941.095
 366  1996.521
 367  2040.053
 368  2077.345
 369  2018.783
 370  1937.125
 371  1832.849
 372  1791.909
 373  1715.383
 374  1867.477
 375  1905.578
 376  1977.507
 377  1925.081
 378  1953.816
 379  2034.521
 380  1986.137
 381  1878.651
 382  1847.157
 383  1846.407
 384  1929.752
 385  1897.963
 386  1836.302
 387  1711.016
 388  1709.67
 389  1786.4
 390  1754.741
 391  1664.266
 392  1588.417
 393  1665.948
 394  1696.544
 395  1708.39
 396  1697.097
 397  1719.893
 398  1944.753
 399  2008.823
 400  1970.2
 401  1745.921
 402  1639.947
 403  1787.391
 404  1757.089
 405  1651.075
 406  1653.411
 407  1696.034
 408  1743.142
 409  1636.438
 410  1576.356
 411  1665.649
 412  1617.551
 413  1618.964
 414  1500.933
 415  1517.623
 416  1426.135
 417  1426.68
 418  1489.921
 419  1532.712
 420  1522.249
 421  1544.933
 422  1631.028
 423  1663.977
 424  1515.941
 425  1450.022
 426  1352.55
 427  1380.335
 428  1398.042
 429  1524.898
 430  1593.035
 431  1523.898
 432  1556.095
 433  1521.265
 434  1625.832
 435  1777.338
 436  1795.983
 437  1654.651
 438  1595.188
 439  1626.906
 440  1679.503
 441  1640.036
 442  1792.708
 443  1883.739
 444  1914.57
 445  1878.223
 446  1781.119
 447  1715.726
 448  1760.079
 449  1719.73
 450  1751.381
 451  1686.067
 452  1606.135
 453  1669.396
 454  1722.615
 455  1706.729
 456  1598.913
 457  1496.258
 458  1533.183
 459  1493.238
 460  1520.606
 461  1597.184
 462  1716.155
 463  1796.348
 464  1690.249
 465  1662.43
 466  1594.514
 467  1645.647
 468  1629.872
 469  1638.33
 470  1622.114
 471  1765.285
 472  1757.968
 473  1725.804
 474  1648.036
 475  1636.014
 476  1677.418
 477  1697.238
 478  1714.656
 479  1597.799
 480  1460.112
 481  1581.929
 482  1739.283
 483  1693.977
 484  1813.223
 485  1816.016
 486  1895.242
 487  1732.236
 488  1642.129
 489  1618.554
 490  1538.898
 491  1582.452
 492  1607.644
 493  1614.117
 494  1555.377
 495  1619.107
 496  1684.215
 497  1581.293
 498  1428.849
 499  1515.024
 500  1587.948
 501  1580.17
 502  1515.096
 503  1630.746
 504  1746.038
 505  1763.986
 506  1608.011
 507  1569.373
 508  1576.527
 509  1701.8
 510  1706.447
 511  1699.732
 512  1655.377
 513  1905.26
 514  2024.345
 515  1971.406
 516  1754.522
 517  1647.77
 518  1655.77
 519  1485.102
 520  1510.751
 521  1560.948
 522  1634.324
 523  1692.627
 524  1705.903
 525  1713.302
 526  1748.29
 527  1696.092
 528  1678.535
 529  1549.937
 530  1507.888
 531  1541.041
 532  1513.395
 533  1521.95
 534  1524.784
 535  1602.547
 536  1674.128
 537  1648.069
 538  1545.601
 539  1600.689
 540  1598.577
 541  1625.938
 542  1560.461
 543  1653.018
 544  1677.169
 545  1596.854
 546  1647.528
 547  1596.32
 548  1567.083
 549  1554.612
 550  1732.801
 551  1889.89
 552  1955.561
 553  1896.667
 554  1819.28
 555  1767.365
 556  1670.506
 557  1795.058
 558  1738.278
 559  1737.286
 560  1736.072
 561  1682.743
 562  1743.238
 563  1646.53
 564  1727.064
 565  1697.573
 566  1670.639
 567  1781.712
 568  1702.231
 569  1743.254
 570  1729.838
 571  1885.12
 572  1912.467
 573  1876.456
 574  1884.283
 575  1852.198
 576  1838.521
 577  1751.909
 578  1854.085
 579  1923.15
 580  1894.69
 581  1803.636
 582  1794.454
 583  1988.554
 584  2021.926
 585  2080.064
 586  2120.684
 587  2111.998
 588  2119.377
 589  2088.941
 590  2125.506
 591  2054.527
 592  2128.058
 593  2201.366
 594  2391.917
 595  2453.767
 596  2615.862
 597  2604.025
 598  2686.733
 599  2783.005
 600  2832.592
 601  2907.722
 602  2999.227
 603  3122.78
 604  2934.868
 605  2705.284
 606  2586.547
 607  2451.912
 608  2306.642
 609  2244.363
 610  2324.047
 611  2332.705
 612  2418.661
 613  2426.328
 614  2302.692
 615  2116.19
 616  2016.176
 617  2092.4
 618  1991.085
 619  2089.198
 620  2263.503
 621  2356.978
 622  2325.48
 623  2213.973
 624  2227.509
 625  2119.626
 626  2061.025
 627  2201.846
 628  2138.516
 629  2082.516
 630  2071.887
 631  2186.55
 632  2250.213
 633  2112.12
 634  2087.917
 635  1976.913
 636  1909.042
 637  1772.62
 638  1847.772
 639  1786.391
 640  1798.271
 641  1802.194
 642  1786.881
 643  1849.428
 644  1911.78
 645  1985.274
 646  2047.661
 647  2114.832
 648  2130.574
 649  2160.326
 650  2071.292
 651  2141.58
 652  1987.144
 653  2038.098
 654  1930.788
 655  1968.846
 656  1930.808
 657  1973.27
 658  2067.503
 659  2070.961
 660  2041.829
 661  1941.281
 662  1961.985
 663  2010.764
 664  2125.803
 665  2320.749
 666  2368.039
 667  2325.938
 668  2108.681
 669  2058.997
 670  2025.426
 671  2004.507
 672  1905.048
 673  1885.63
 674  1963.611
 675  2056.443
 676  2137.014
 677  2163.918
 678  2002.021
 679  1982.695
 680  1985.508
 681  2024.493
 682  1960.111
 683  1838.107
 684  1805.386
 685  1921.617
 686  1977.956
 687  2178.074
 688  2226.628
 689  2179.269
 690  2039.59
 691  2049.43
 692  2166.149
 693  2067.002
 694  1980.369
 695  2019.576
 696  1895.617
 697  1929.861
 698  1846.497
 699  1977.646
 700  2030.192
 701  1912.905
 702  1900.096
 703  1878.679
 704  1980.11
 705  1952.677
 706  2015.305
 707  1839.364
 708  1821.83
 709  1656.168
 710  1674.772
 711  1595.375
 712  1742.721
 713  1922.319
 714  1902.088
 715  1797.695
 716  1767.206
 717  1932.196
 718  2065.455
 719  1984.047
 720  1839.668
 721  1841.124
 722  1839.296
 723  1808.497
 724  1816.873
 725  1702.499
 726  1607.692
 727  1592.195
 728  1590.766
 729  1689.3
 730  1751.998
 731  1859.588
 732  1920.389
 733  1881.364
 734  1982.014
 735  1855.576
 736  1788.635
 737  1899.208
 738  1930.829
 739  1836.043
 740  1690.452
 741  1870.098
 742  1996.121
 743  1894.886
 744  1832.257
 745  1802.369
 746  1709.592
 747  1686.956
 748  1730.114
 749  1814.098
 750  1733.516
 751  1676.744
 752  1799.83
 753  1864.897
 754  1781.88
 755  1636.622
 756  1784.885
 757  1863.826
 758  1967.044
 759  1802.87
 760  1788.934
 761  1849.988
 762  1940.777
 763  1978.75
 764  1899.214
 765  1793.192
 766  1611.679
 767  1534.324
 768  1668.204
 769  1716.343
 770  1747.532
 771  1768.895
 772  1759.211
 773  1765.417
 774  1812.399
 775  1769.914
 776  1815.447
 777  1743.644
 778  1903.733
 779  1908.035
 780  1883.701
 781  1856.726
 782  1853.634
 783  1894.304
 784  1954.6
 785  1952.123
 786  1993.551
 787  1922.812
 788  1937.51
 789  1999.628
 790  1962.146
 791  1989.127
 792  1914.577
 793  1823.005
 794  1789.007
 795  1880.335
 796  1951.329
 797  2042.272
 798  2038.436
 799  2082.966
 800  1977.421
 801  1889.719
 802  1841.686
 803  1799.319
 804  2001.169
 805  2090.629
 806  2155.443
 807  2091.693
 808  1976.583
 809  1902.472
 810  1894.64
 811  1917.711
 812  1862.386
 813  1933.636
 814  1916.928
 815  1978.459
 816  1887.123
 817  2017.789
 818  1944.604
 819  1803.826
 820  1793.82
 821  1948.422
 822  2075.048
 823  2087.398
 824  1996.536
 825  2068.656
 826  1993.637
 827  1787.594
 828  1810.038
 829  1913.516
 830  2046.575
 831  2002.888
 832  1897.039
 833  1839.577
 834  1817.776
 835  1986.36
 836  2089.778
 837  2232.575
 838  2299.87
 839  2145.665
 840  2065.798
 841  2088.033
 842  2088.301
 843  2151.043
 844  2136.137
 845  2192.835
 846  2193.338
 847  2221.949
 848  2235.759
 849  2294.002
 850  2200.992
 851  2124.875
 852  2064.678
 853  1974.186
 854  2070.366
 855  2097.034
 856  2267.174
 857  2188.183
 858  2077.469
 859  1961.062
 860  1931.356
 861  2050.855
 862  2029.925
 863  1885.254
 864  1817.654
 865  1831.671
 866  1661.203
 867  1573.978
 868  1650.128
 869  1725.355
 870  1854.867
 871  1945.101
 872  1978.128
 873  1897.342
 874  1860.673
 875  1832.291
 876  1890.534
 877  1757.673
 878  1777.554
 879  1745.151
 880  1849.263
 881  1839.378
 882  1944.536
 883  1978.286
 884  2032.628
 885  2107.671
 886  2108.952
 887  2064.551
 888  1957.072
 889  1891.131
 890  1931.234
 891  1873.078
 892  1683.569
 893  1683.551
 894  1711.511
 895  1671.842
 896  1554.527
 897  1415.998
 898  1485.208
 899  1542.253
 900  1728.767
 901  1850.487
 902  1800.372
 903  1713.787
 904  1625.818
 905  1647.154
 906  1650.431
 907  1513.425
 908  1417.761
 909  1470.381
 910  1514.301
 911  1540.219
 912  1493.191
 913  1557.76
 914  1730.146
 915  1804.744
 916  1816.56
 917  1713.918
 918  1580.618
 919  1437.306
 920  1439.048
 921  1424.17
 922  1308.276
 923  1165.113
 924  1186.818
 925  1215.567
 926  1273.473
 927  1492.127
 928  1629.133
 929  1592.704
 930  1612.499
 931  1615.04
 932  1598.297
 933  1522.488
 934  1590.837
 935  1767.623
 936  1684.91
 937  1744.859
 938  1648.897
 939  1679.036
 940  1656.743
 941  1795.404
 942  1832.453
 943  1821.069
 944  1714.895
 945  1597.671
 946  1608.915
 947  1599.434
 948  1616.562
 949  1555.848
 950  1544.623
 951  1679.54
 952  1746.522
 953  1822.524
 954  1778.96
 955  1665.094
 956  1771.76
 957  1703.575
 958  1614.332
 959  1537.442
 960  1606.512
 961  1656.968
 962  1473.6
 963  1568.761
 964  1614.34
 965  1677.038
 966  1574.639
 967  1549.129
 968  1647.47
 969  1657.543
 970  1617.442
 971  1671.463
 972  1650.143
 973  1584.923
 974  1528.481
 975  1510.848
 976  1561.767
 977  1597.271
 978  1694.908
 979  1822.032
 980  1851.33
 981  1782.654
 982  1775.18
 983  1836.98
 984  1838.475
 985  1721.818
 986  1650.26
 987  1647.729
 988  1622.399
 989  1697.324
 990  1800.767
 991  1836.128
 992  1794.647
 993  1710.522
 994  1671.522
 995  1654.736
 996  1703.038
 997  1822.356
 998  1813.251
 999  1631.007
1000  1600.331
1001  1590.305
1002  1629.725
1003  1674.516
1004  1708.938
1005  1702.466
1006  1600.358
1007  1576.746
1008  1543.625
1009  1431.188
1010  1439.393
1011  1484.899
1012  1644.956
1013  1725.611
1014  1703.663
1015  1743.969
1016  1741.224
1017  1714.054
1018  1733.689
1019  1634.391
1020  1591.439
1021  1590.653
1022  1716.268
1023  1810.412
