# Input file       =  1209115697.107978_cleaned.dat
# Candidate        =  PSR_0332+5434
# Telescope        =  AR
# Epoch_topo       =  58238.394862360859
# Epoch_bary       =  N/A
# T_sample         =  0.002
# Data Folded      =  7340032
# Data Avg         =  0.233276704703582
# Data StdDev      =  6.28568795337405 
# Profile Bins     =  1024
# Profile Avg      =  1671.8411614076  
# Profile StdDev   =  532.171748594634 
# Reduced chi-sqr  =  0.777
# Prob(Noise)      <  1   (~0.0 sigma)
# P_topo (ms)      =  714.547275120497  +/- 0.000411
# P'_topo (s/s)    =  -0                +/- 2.17e-10
# P''_topo (s/s^2) =  0                 +/- 9.57e-14
# P_bary (ms)      =  N/A
# P'_bary (s/s)    =  N/A
# P''_bary (s/s^2) =  N/A
# P_orb (s)        =  N/A
# asin(i)/c (s)    =  N/A
# eccentricity     =  N/A
# w (rad)          =  N/A
# T_peri           =  N/A
######################################################
   0  1350.876
   1  1326.998
   2  1353.188
   3  1264.433
   4  1363.207
   5  1346.04
   6  1331.307
   7  1258.324
   8  1326.364
   9  1373.603
  10  1323.631
  11  1322.92
  12  1457.937
  13  1533.788
  14  1508.357
  15  1469.314
  16  1467.761
  17  1472.505
  18  1502.517
  19  1423.705
  20  1301.052
  21  1270
  22  1364.733
  23  1391.013
  24  1401.059
  25  1323.074
  26  1325.573
  27  1395.643
  28  1541.654
  29  1566.761
  30  1487.992
  31  1511.431
  32  1524.744
  33  1554.801
  34  1612.071
  35  1652.922
  36  1546.597
  37  1493.385
  38  1529.905
  39  1569.911
  40  1508.122
  41  1511.78
  42  1526.371
  43  1618.291
  44  1758.657
  45  1792.087
  46  1693.585
  47  1688.167
  48  1692.518
  49  1772.485
  50  1687.499
  51  1654.989
  52  1624.775
  53  1724.726
  54  1805.003
  55  1750.945
  56  1732.119
  57  1764.951
  58  1804.206
  59  1849.161
  60  1824.937
  61  1783.812
  62  1692.949
  63  1671.309
  64  1764.805
  65  1881.115
  66  1734.089
  67  1662.752
  68  1588.304
  69  1795.912
  70  1888.259
  71  1894.287
  72  1817.679
  73  1835.165
  74  1900.876
  75  1816.128
  76  1859.544
  77  1963.79
  78  2042.718
  79  2063.044
  80  2017.068
  81  2071.727
  82  1973.517
  83  2128.927
  84  2083.932
  85  2160.285
  86  2133.943
  87  2144.468
  88  2098.926
  89  2066.528
  90  1934.034
  91  1957.944
  92  1840.289
  93  1774.507
  94  1710.637
  95  1742.112
  96  1662.383
  97  1573.517
  98  1560.681
  99  1681.013
 100  1707.824
 101  1725.127
 102  1802.846
 103  1727.805
 104  1627.153
 105  1526.073
 106  1477.756
 107  1387.699
 108  1375.441
 109  1241.722
 110  1263.333
 111  1401.878
 112  1495.297
 113  1496.747
 114  1387.945
 115  1459.737
 116  1446.035
 117  1398.029
 118  1302.158
 119  1256.906
 120  1333.122
 121  1432.27
 122  1467.355
 123  1282.484
 124  1116.191
 125  1171.844
 126  1393.252
 127  1472.1
 128  1458.547
 129  1330.501
 130  1435.708
 131  1423.314
 132  1463.333
 133  1430.139
 134  1416.206
 135  1419.425
 136  1527.888
 137  1649.126
 138  1679.08
 139  1562.567
 140  1487.337
 141  1565.188
 142  1676.245
 143  1699.559
 144  1604.231
 145  1548.133
 146  1521.051
 147  1527.975
 148  1707.913
 149  1794.264
 150  1785.549
 151  1719.432
 152  1818.956
 153  1808.946
 154  1883.701
 155  1843.092
 156  1827.727
 157  1710.653
 158  1658.91
 159  1647.077
 160  1756.827
 161  1874.271
 162  1975.193
 163  1869.284
 164  1804.346
 165  1805.48
 166  1961.525
 167  1992.629
 168  2055.133
 169  2030.07
 170  1971.34
 171  1920.013
 172  1711.468
 173  1743.602
 174  1831.576
 175  1922.741
 176  1937.176
 177  1875.422
 178  1896.086
 179  1819.876
 180  1851.248
 181  1914.418
 182  1955.671
 183  1905.04
 184  1867.93
 185  1881.205
 186  1852.064
 187  1748.241
 188  1627.626
 189  1665.504
 190  1725.858
 191  1785.722
 192  1736.707
 193  1800.292
 194  1842.531
 195  1859.149
 196  1754.824
 197  1763.418
 198  1769.043
 199  1853.375
 200  1937.736
 201  1856.238
 202  1711.834
 203  1645.041
 204  1737.572
 205  1729.701
 206  1695.051
 207  1739.229
 208  1878.9
 209  1919.092
 210  1979.159
 211  2065.728
 212  2123.89
 213  2134.811
 214  2078.437
 215  2047.28
 216  1947.468
 217  2029.083
 218  1999.018
 219  2069.088
 220  1996.796
 221  2000.684
 222  1865.722
 223  1960.039
 224  2135.9
 225  2154.579
 226  2044.756
 227  1924.493
 228  1883.004
 229  1933.871
 230  2047.983
 231  2270.564
 232  2392.722
 233  2382.547
 234  2309.804
 235  2358.066
 236  2228.79
 237  2171.388
 238  2088.212
 239  2094.178
 240  1988.356
 241  1867.449
 242  1700.205
 243  1650.317
 244  1591.966
 245  1661.214
 246  1718.574
 247  1742.117
 248  1806.495
 249  1727.642
 250  1693.061
 251  1626.978
 252  1648.659
 253  1674.026
 254  1540.209
 255  1397.823
 256  1286.978
 257  1298.675
 258  1403.998
 259  1434.027
 260  1262.94
 261  1117.344
 262  1102.996
 263  1160.11
 264  1166.388
 265  1193.531
 266  1255.409
 267  1327.573
 268  1359.371
 269  1344.73
 270  1307.423
 271  1148.546
 272  1185.846
 273  1260.889
 274  1271.653
 275  1237.989
 276  1188.402
 277  1239.88
 278  1295.175
 279  1303.021
 280  1257.397
 281  1050.738
 282  1029.059
 283  1241.92
 284  1443.869
 285  1468.054
 286  1365.36
 287  1335.191
 288  1437.948
 289  1427.797
 290  1454.957
 291  1404.069
 292  1323.08
 293  1243.184
 294  1128.173
 295  1127.406
 296  1138.78
 297  1206.943
 298  1364.888
 299  1433.1
 300  1459.872
 301  1355.38
 302  1364.105
 303  1380.954
 304  1511.496
 305  1642.133
 306  1784.013
 307  1726.748
 308  1727.2
 309  1705.274
 310  1718.075
 311  1598.35
 312  1699.64
 313  1741.307
 314  1718.806
 315  1568.501
 316  1592.811
 317  1745.306
 318  1752.906
 319  1820.149
 320  1693.026
 321  1738.724
 322  1675.332
 323  1590.058
 324  1593.137
 325  1407.642
 326  1417.828
 327  1596.063
 328  1735.282
 329  1736.694
 330  1632.405
 331  1627.583
 332  1606.499
 333  1394.233
 334  1387.748
 335  1470.839
 336  1555.569
 337  1539.264
 338  1681.145
 339  1873.706
 340  1848.756
 341  1773.565
 342  1629.585
 343  1656.2
 344  1633.401
 345  1591.311
 346  1343.378
 347  1278.454
 348  1236.575
 349  1360.54
 350  1372.484
 351  1521.713
 352  1550.575
 353  1573.286
 354  1555.447
 355  1659.812
 356  1755.537
 357  1880.911
 358  1915.243
 359  1916.138
 360  1766.641
 361  1668.253
 362  1559.772
 363  1566.156
 364  1521.952
 365  1555.646
 366  1624.993
 367  1776.224
 368  1845.495
 369  1723.303
 370  1523.173
 371  1585.511
 372  1868.317
 373  1935.753
 374  2042.311
 375  1964.039
 376  1952.45
 377  1903.669
 378  1840.939
 379  1785.376
 380  1597.714
 381  1621.436
 382  1755.365
 383  1949.809
 384  1845.678
 385  1756.525
 386  1807.565
 387  1791.648
 388  1858.052
 389  1853.764
 390  1884.446
 391  1855.238
 392  1755.067
 393  1680.792
 394  1736.478
 395  1740.091
 396  1695.068
 397  1663.318
 398  1637.785
 399  1690.272
 400  1770.753
 401  1810.645
 402  1803.75
 403  1744.59
 404  1641.393
 405  1574.171
 406  1503.938
 407  1656.636
 408  1685.14
 409  1665.225
 410  1649.662
 411  1581.626
 412  1748.137
 413  1792.22
 414  1779.055
 415  1765.497
 416  1745.884
 417  1803.408
 418  1786.661
 419  1659.035
 420  1638.032
 421  1698.532
 422  1584.567
 423  1528.061
 424  1416.531
 425  1436.209
 426  1462.334
 427  1532.502
 428  1468.372
 429  1450.694
 430  1392.156
 431  1388.253
 432  1364.608
 433  1374.576
 434  1582.665
 435  1565.951
 436  1496.482
 437  1389.609
 438  1357.509
 439  1465.154
 440  1443.656
 441  1429.493
 442  1394.968
 443  1399.362
 444  1342.248
 445  1293.693
 446  1390.27
 447  1441.29
 448  1467.582
 449  1313.896
 450  1345.914
 451  1427.004
 452  1414.83
 453  1321.212
 454  1233.891
 455  1288.665
 456  1380.877
 457  1411.852
 458  1456.286
 459  1403.53
 460  1410.963
 461  1398.357
 462  1361.272
 463  1262.494
 464  1353.459
 465  1352.276
 466  1319.351
 467  1292.329
 468  1312.18
 469  1324.049
 470  1349.969
 471  1327.129
 472  1342.903
 473  1361.915
 474  1294.408
 475  1248.858
 476  1175.91
 477  1344.023
 478  1480.06
 479  1551.444
 480  1559.256
 481  1499.756
 482  1406.18
 483  1421.903
 484  1537.716
 485  1683.828
 486  1723.245
 487  1665.638
 488  1534.531
 489  1418.934
 490  1436.622
 491  1697.976
 492  1804.41
 493  1743.977
 494  1745.805
 495  1823.889
 496  1829.889
 497  1609.788
 498  1558.274
 499  1628.676
 500  1710.21
 501  1735.059
 502  1694.533
 503  1633.403
 504  1654.076
 505  1907.786
 506  1978.339
 507  1839.307
 508  1771.232
 509  1783.84
 510  1826.458
 511  1750.737
 512  1761.105
 513  1657.403
 514  1714.257
 515  1720.491
 516  1857.216
 517  1825.587
 518  1784.658
 519  1790.417
 520  1968.221
 521  2080.574
 522  2205.937
 523  2130.613
 524  2158.146
 525  2040.387
 526  2009.26
 527  1916.911
 528  1765.676
 529  1605.338
 530  1561.775
 531  1491.601
 532  1503.299
 533  1511.023
 534  1680.613
 535  1738.529
 536  1757.453
 537  1714.232
 538  1601.333
 539  1550.629
 540  1616.131
 541  1773.802
 542  1913.193
 543  1936.746
 544  1886.624
 545  1746.579
 546  1716.277
 547  1618.893
 548  1643.047
 549  1700.997
 550  1807.718
 551  1820.444
 552  1885.995
 553  1939.251
 554  1967.491
 555  1710.564
 556  1604.392
 557  1569.898
 558  1575.134
 559  1652.137
 560  1868.633
 561  1896.731
 562  1733.458
 563  1824.55
 564  1971.564
 565  2030.271
 566  1853.143
 567  1783.789
 568  1749.405
 569  1736.815
 570  1825.349
 571  1839.671
 572  1784.226
 573  1614.051
 574  1633.024
 575  1690.42
 576  1658.812
 577  1592.578
 578  1654.477
 579  1720.046
 580  1732.98
 581  1510.467
 582  1446.527
 583  1479.036
 584  1605.265
 585  1673.627
 586  1625.696
 587  1660.717
 588  1739.901
 589  1813.055
 590  1898.468
 591  1857.736
 592  1984.187
 593  2125.094
 594  2300.5
 595  2398.874
 596  2294.416
 597  2410.784
 598  2458.346
 599  2506.211
 600  2510.674
 601  2461.677
 602  2527.45
 603  2491.766
 604  2466.007
 605  2371.657
 606  2335.799
 607  2193.935
 608  2113.623
 609  2031.479
 610  2006.302
 611  1946.936
 612  1855.621
 613  1894.024
 614  1877.041
 615  1818.92
 616  1830.404
 617  1774.792
 618  1730.287
 619  1682.912
 620  1776.655
 621  1865.823
 622  1914.467
 623  1817.418
 624  1815.266
 625  1765.395
 626  1875.577
 627  1839.341
 628  1869.137
 629  1887.109
 630  1898.41
 631  1839.091
 632  1736.284
 633  1626.461
 634  1663.22
 635  1744.476
 636  1841.975
 637  1772.422
 638  1882.459
 639  1838.909
 640  1949.269
 641  1783.196
 642  1899.419
 643  1941.928
 644  1990.143
 645  1958.711
 646  1896.149
 647  1898.282
 648  1952.858
 649  1889.526
 650  1909.203
 651  1867.885
 652  1927.286
 653  1935.624
 654  1873.011
 655  1966.872
 656  2032.553
 657  2004.558
 658  1923.274
 659  1799.727
 660  1844.622
 661  1860.82
 662  1901.659
 663  1883.433
 664  2009.49
 665  2208.905
 666  2197.525
 667  2212.751
 668  2155.593
 669  2147.871
 670  2062.115
 671  2046.775
 672  2060.73
 673  1945.665
 674  2025.02
 675  2009.771
 676  1933.874
 677  1836.67
 678  1827.188
 679  1806.195
 680  1711.318
 681  1755.672
 682  1775.046
 683  1823.262
 684  1584.205
 685  1512.242
 686  1479.959
 687  1512.595
 688  1612.527
 689  1727.546
 690  1705.484
 691  1588.516
 692  1529.314
 693  1603.308
 694  1625.444
 695  1579.052
 696  1478.12
 697  1553.748
 698  1575.257
 699  1500.269
 700  1427.273
 701  1299.079
 702  1245.754
 703  1203.326
 704  1316.728
 705  1392.572
 706  1521.53
 707  1646.107
 708  1647.272
 709  1464.753
 710  1353.041
 711  1282.938
 712  1393.862
 713  1373.625
 714  1363.572
 715  1241.794
 716  1272.07
 717  1369.155
 718  1511.703
 719  1603.768
 720  1546.566
 721  1562.43
 722  1599.972
 723  1645.604
 724  1502.91
 725  1519.067
 726  1572.234
 727  1686.187
 728  1707.727
 729  1670.826
 730  1643.674
 731  1549.933
 732  1425.901
 733  1451.528
 734  1391.234
 735  1465.684
 736  1544.674
 737  1593.371
 738  1598.702
 739  1549.28
 740  1565.694
 741  1643.38
 742  1695.125
 743  1741.599
 744  1598.503
 745  1581.826
 746  1706.389
 747  1798.446
 748  1751.559
 749  1654.132
 750  1727.411
 751  1763.735
 752  1803.348
 753  1817.651
 754  1767.476
 755  1808.38
 756  1868.084
 757  1852.352
 758  1766.822
 759  1724.86
 760  1820.623
 761  1926.148
 762  1828.474
 763  1842.67
 764  1865.37
 765  1827.03
 766  1712.12
 767  1709.275
 768  1783.416
 769  1750.368
 770  1743.419
 771  1894.462
 772  2065.136
 773  2108.92
 774  2144.018
 775  2147.605
 776  1912.779
 777  1837.436
 778  1863.1
 779  1829.868
 780  1738.63
 781  1674.132
 782  1669.318
 783  1631.407
 784  1678.482
 785  1779.844
 786  1785.584
 787  1765.977
 788  1735.928
 789  1579.097
 790  1647.424
 791  1622.363
 792  1567.697
 793  1541.35
 794  1604.826
 795  1684.494
 796  1648.171
 797  1590.254
 798  1606.033
 799  1520.304
 800  1579.423
 801  1616.204
 802  1781.297
 803  1654.459
 804  1548.653
 805  1512.505
 806  1683.922
 807  1629.7
 808  1495.581
 809  1510.302
 810  1585.074
 811  1705.59
 812  1652.835
 813  1554.088
 814  1591.28
 815  1765.929
 816  1963.978
 817  1940.274
 818  1925.467
 819  1834.741
 820  1918.302
 821  2010.894
 822  1964.344
 823  1750.498
 824  1649.369
 825  1669.993
 826  1693.004
 827  1632.134
 828  1627.975
 829  1520.446
 830  1344.632
 831  1297.334
 832  1406.179
 833  1420.725
 834  1578.91
 835  1624.675
 836  1712.805
 837  1711.149
 838  1629.073
 839  1530.565
 840  1495.273
 841  1545.538
 842  1404.605
 843  1324.427
 844  1321.653
 845  1472.486
 846  1565.465
 847  1543.752
 848  1507.096
 849  1408.994
 850  1359.231
 851  1229.372
 852  1031.644
 853  1197.624
 854  1331.235
 855  1432.402
 856  1364.743
 857  1409.415
 858  1308.409
 859  1243.245
 860  1169.059
 861  1318.302
 862  1313.169
 863  1430.147
 864  1448.857
 865  1594.531
 866  1660.418
 867  1663.763
 868  1616.963
 869  1546.042
 870  1605.253
 871  1614.61
 872  1454.416
 873  1332.532
 874  1260.919
 875  1415.138
 876  1604.997
 877  1724.367
 878  1700.512
 879  1592.941
 880  1445.633
 881  1383.283
 882  1454.686
 883  1471.323
 884  1492.196
 885  1519.226
 886  1586.29
 887  1580.122
 888  1600.91
 889  1607.523
 890  1518.796
 891  1523.726
 892  1587.279
 893  1709.365
 894  1816.859
 895  1860.096
 896  1766.91
 897  1747.397
 898  1849.621
 899  1874.533
 900  1738.839
 901  1643.448
 902  1861.602
 903  2037.922
 904  2199.064
 905  2186.718
 906  2177.913
 907  2155.011
 908  2123.773
 909  2174.791
 910  2189.073
 911  2217.273
 912  2318.169
 913  2335.835
 914  2279.461
 915  2233.092
 916  2143.379
 917  2081.678
 918  2180.736
 919  2208.442
 920  2286.509
 921  2252.034
 922  2285.565
 923  2209.959
 924  2155.845
 925  2067.572
 926  1853.281
 927  1818.22
 928  1885.068
 929  1966.689
 930  1947.279
 931  1799.883
 932  1778.279
 933  1689.624
 934  1893.796
 935  1864.629
 936  1861.245
 937  1790.801
 938  2008.604
 939  2011.66
 940  1927.027
 941  1705.634
 942  1625.338
 943  1614.576
 944  1590.339
 945  1621.934
 946  1605.368
 947  1515.236
 948  1522.5
 949  1647.589
 950  1619.194
 951  1568.033
 952  1573.364
 953  1618.462
 954  1660.881
 955  1702.851
 956  1670.704
 957  1610.611
 958  1568.892
 959  1625.917
 960  1726.554
 961  1714.52
 962  1826.683
 963  1806.925
 964  1726.243
 965  1706.912
 966  1595.177
 967  1657.249
 968  1629.676
 969  1747.112
 970  1726.761
 971  1705.628
 972  1693.161
 973  1713.107
 974  1649.563
 975  1618.71
 976  1754.428
 977  1772.181
 978  1844.008
 979  1716.21
 980  1705.346
 981  1621.355
 982  1512.542
 983  1451.715
 984  1514.767
 985  1741.426
 986  1680.874
 987  1584.676
 988  1393.068
 989  1379.821
 990  1222.932
 991  1322.921
 992  1335.338
 993  1449.916
 994  1442.648
 995  1431.262
 996  1326.951
 997  1236.537
 998  1196.804
 999  1264.099
1000  1439.307
1001  1472.178
1002  1468.978
1003  1371.25
1004  1319.699
1005  1235.82
1006  1303.581
1007  1223.985
1008  1264.534
1009  1182.357
1010  1313.746
1011  1326.358
1012  1325.782
1013  1355.866
1014  1320.825
1015  1442.557
1016  1415.288
1017  1325.958
1018  1109.892
1019  1271.629
1020  1446.57
1021  1392.174
1022  1286.904
1023  1160.802
