# Input file       =  1209288028.114244-PSRB0329-2ms-sampling-dd.dat
# Candidate        =  PSR_0332+5434
# Telescope        =  AR
# Epoch_topo       =  58240.389434192635
# Epoch_bary       =  N/A
# T_sample         =  0.002
# Data Folded      =  7340032
# Data Avg         =  -7.19587912076256e-10
# Data StdDev      =  7.81142805332541 
# Profile Bins     =  512
# Profile Avg      =  5.31414300187035 
# Profile StdDev   =  935.285999263303 
# Reduced chi-sqr  =  0.556
# Prob(Noise)      <  1   (~0.0 sigma)
# P_topo (ms)      =  714.545480621702  +/- 0.000749
# P'_topo (s/s)    =  -0                +/- 3.95e-10
# P''_topo (s/s^2) =  0                 +/- 1.74e-13
# P_bary (ms)      =  N/A
# P'_bary (s/s)    =  N/A
# P''_bary (s/s^2) =  N/A
# P_orb (s)        =  N/A
# asin(i)/c (s)    =  N/A
# eccentricity     =  N/A
# w (rad)          =  N/A
# T_peri           =  N/A
######################################################
   0  -357.1472
   1  -332.4993
   2  -467.9264
   3  -57.77122
   4  71.67265
   5  549.7534
   6  201.6147
   7  -272.7812
   8  -279.55
   9  -365.569
  10  -395.2365
  11  -334.9352
  12  -210.5581
  13  -327.5551
  14  -486.6973
  15  -404.4848
  16  -237.3397
  17  -6.645622
  18  9.309708
  19  -268.4506
  20  -74.65094
  21  -109.9603
  22  -250.0276
  23  -167.913
  24  1.751332
  25  -523.5018
  26  -388.8246
  27  -452.1112
  28  -325.5781
  29  233.3992
  30  609.2448
  31  146.4138
  32  25.13799
  33  -34.65441
  34  -140.3255
  35  140.2822
  36  77.404
  37  280.2052
  38  441.3513
  39  211.8959
  40  70.83219
  41  -41.67089
  42  -407.721
  43  -495.5483
  44  -116.6248
  45  178.4753
  46  -61.79643
  47  -540.1561
  48  -787.6476
  49  -536.0137
  50  -610.1677
  51  -254.0934
  52  -574.3571
  53  -293.805
  54  -450.9778
  55  -712.3544
  56  -867.8279
  57  -839.0478
  58  -723.3896
  59  -677.3077
  60  -315.5862
  61  -284.2653
  62  244.8727
  63  -83.85067
  64  -366.5664
  65  -276.3899
  66  -208.8019
  67  60.66172
  68  -37.88795
  69  285.0179
  70  179.0996
  71  97.78498
  72  -170.4328
  73  -485.2997
  74  -641.9269
  75  -657.7821
  76  8.549911
  77  65.01897
  78  258.607
  79  385.9121
  80  353.2903
  81  394.9245
  82  748.6241
  83  853.606
  84  537.973
  85  370.0347
  86  480.9725
  87  299.0614
  88  929.2714
  89  1019.862
  90  498.8069
  91  589.4183
  92  594.0959
  93  364.8047
  94  267.5138
  95  527.3754
  96  571.1772
  97  458.7934
  98  373.3143
  99  605.8822
 100  222.6383
 101  55.60724
 102  814.8173
 103  1011.511
 104  816.6227
 105  1036.133
 106  689.4529
 107  752.4358
 108  626.4734
 109  572.8935
 110  468.8509
 111  394.3738
 112  356.8188
 113  459.2399
 114  317.0201
 115  -360.0965
 116  -319.0368
 117  -355.3974
 118  -629.0806
 119  -477.871
 120  -177.2505
 121  -153.7018
 122  -86.70551
 123  118.5335
 124  344.2136
 125  463.2784
 126  146.158
 127  250.7889
 128  -4.140213
 129  133.8485
 130  321.4282
 131  98.93325
 132  -12.61927
 133  48.30247
 134  -248.2254
 135  -32.98615
 136  -65.66659
 137  -266.3997
 138  34.57097
 139  -337.1046
 140  -418.3934
 141  -268.1858
 142  -528.4603
 143  -306.0225
 144  -57.13382
 145  -154.6339
 146  -481.6835
 147  -461.3604
 148  -575.8514
 149  -622.3436
 150  -725.7327
 151  -841.0179
 152  -817.0487
 153  -449.5801
 154  -637.4163
 155  -869.9743
 156  -949.6348
 157  -969.4587
 158  -406.2868
 159  -138.7378
 160  83.20567
 161  49.10677
 162  -333.4262
 163  -345.0979
 164  -62.38491
 165  -10.31072
 166  -290.7283
 167  -428.2096
 168  -434.4973
 169  -255.9115
 170  -242.6123
 171  -126.8088
 172  42.42442
 173  271.2507
 174  378.5441
 175  107.0147
 176  257.6952
 177  557.0819
 178  748.0139
 179  1099.447
 180  1480.008
 181  1620.642
 182  1550.005
 183  1379.13
 184  710.8474
 185  394.1315
 186  187.3226
 187  -12.94989
 188  -241.7392
 189  40.89732
 190  236.6828
 191  -91.16225
 192  -60.63551
 193  208.7464
 194  208.6275
 195  201.7042
 196  43.21136
 197  74.7389
 198  69.04881
 199  18.83934
 200  76.04794
 201  -294.0374
 202  195.8907
 203  190.7371
 204  108.197
 205  184.7533
 206  24.93148
 207  -32.22655
 208  101.0579
 209  -442.8755
 210  -302.8107
 211  -180.2849
 212  -349.9175
 213  -572.1914
 214  -788.585
 215  -385.2086
 216  -444.0067
 217  -250.0375
 218  -542.6961
 219  -414.5284
 220  -101.9127
 221  -78.60688
 222  170.5545
 223  299.2498
 224  541.877
 225  772.7152
 226  993.3391
 227  833.1339
 228  588.2015
 229  402.424
 230  688.7328
 231  874.5712
 232  843.9747
 233  761.0489
 234  804.9392
 235  194.6477
 236  201.7228
 237  370.2568
 238  555.5787
 239  806.2303
 240  1020.4
 241  817.6302
 242  1074.792
 243  1222.357
 244  1018.158
 245  805.1324
 246  981.1518
 247  821.9612
 248  635.8262
 249  526.02
 250  785.7611
 251  824.5132
 252  707.6392
 253  277.6989
 254  217.2184
 255  436.6416
 256  514.4727
 257  575.6029
 258  684.9
 259  358.7585
 260  314.3137
 261  267.1875
 262  -6.643711
 263  178.1391
 264  356.754
 265  239.3742
 266  83.92456
 267  34.71334
 268  95.2063
 269  38.45226
 270  -147.6187
 271  -126.6877
 272  31.89753
 273  -137.0261
 274  -79.58327
 275  -323.6463
 276  -539.155
 277  -493.1746
 278  -237.8988
 279  -242.5229
 280  -518.4515
 281  -333.4868
 282  13.77445
 283  -292.0917
 284  -648.0612
 285  -663.7897
 286  -183.2432
 287  -184.1093
 288  -69.67867
 289  -196.1213
 290  -463.5001
 291  -140.2872
 292  9.80332
 293  173.4166
 294  31.97945
 295  236.2339
 296  65.42094
 297  -576.4559
 298  -412.931
 299  -494.135
 300  -762.1689
 301  -684.7776
 302  -796.6935
 303  -671.1272
 304  -322.0543
 305  -324.0303
 306  -581.5237
 307  -576.8
 308  -1068.071
 309  -1010.975
 310  -605.5669
 311  -603.9821
 312  -808.933
 313  -972.9135
 314  -982.3645
 315  -1037.355
 316  -970.1634
 317  -1033.821
 318  -784.9905
 319  -509.0547
 320  -290.4292
 321  -614.8129
 322  -570.3868
 323  -547.8865
 324  -549.8107
 325  -547.8085
 326  -223.5826
 327  -129.2257
 328  -65.00203
 329  371.2404
 330  240.2437
 331  428.6762
 332  417.6313
 333  200.9974
 334  -28.50068
 335  226.6738
 336  262.2265
 337  44.60419
 338  -54.76437
 339  692.7443
 340  348.1272
 341  67.32645
 342  97.95205
 343  254.1435
 344  432.8288
 345  639.884
 346  673.4929
 347  760.3322
 348  911.0313
 349  866.4863
 350  513.4765
 351  281.6198
 352  161.9783
 353  26.58447
 354  104.4873
 355  461.3421
 356  280.0134
 357  74.22475
 358  400.1242
 359  608.977
 360  702.0491
 361  624.849
 362  890.6491
 363  769.2007
 364  605.7589
 365  845.0391
 366  1058.55
 367  1130.095
 368  1231.579
 369  1050.96
 370  816.2708
 371  785.8703
 372  783.19
 373  429.4188
 374  431.4614
 375  407.7014
 376  610.3791
 377  697.2818
 378  963.1686
 379  653.0536
 380  487.946
 381  483.4317
 382  710.6281
 383  387.3084
 384  196.7949
 385  170.1957
 386  68.54961
 387  -408.3338
 388  -623.5015
 389  -39.51603
 390  -250.6678
 391  -196.139
 392  82.50243
 393  261.3733
 394  -151.0133
 395  -317.0368
 396  -390.4189
 397  -433.8299
 398  -1035.948
 399  -703.3737
 400  -715.8158
 401  -715.7564
 402  -585.4994
 403  -796.5807
 404  -785.8517
 405  -808.2181
 406  -703.9426
 407  -392.1411
 408  -328.5487
 409  -44.39868
 410  -55.57369
 411  -125.4436
 412  -8.337504
 413  -140.1612
 414  192.0745
 415  160.0674
 416  253.0611
 417  255.4475
 418  -11.12717
 419  -247.6521
 420  -291.8745
 421  -679.0914
 422  -318.9538
 423  -403.4629
 424  -466.8498
 425  -250.2719
 426  -272.4351
 427  -380.3336
 428  -828.224
 429  -850.8743
 430  -701.1534
 431  -494.4874
 432  -399.2805
 433  -511.7151
 434  -206.1491
 435  -192.0021
 436  -206.9172
 437  -369.3464
 438  -322.1752
 439  -545.9965
 440  -530.9718
 441  -276.1451
 442  -778.0798
 443  -613.1528
 444  -475.0903
 445  -682.8405
 446  -752.0688
 447  -282.9368
 448  -158.7676
 449  -223.181
 450  -429.3256
 451  -777.4863
 452  -880.8669
 453  -455.7832
 454  -413.7503
 455  -237.77
 456  -198.6134
 457  -275.9293
 458  -240.8325
 459  -310.6947
 460  -452.6154
 461  -326.4067
 462  -313.0056
 463  -108.4986
 464  -309.9737
 465  -482.4052
 466  -228.6163
 467  -159.42
 468  52.06736
 469  472.3428
 470  206.0938
 471  -31.22193
 472  -669.4727
 473  -286.5399
 474  -58.70526
 475  60.73938
 476  82.07016
 477  -47.79181
 478  -228.7087
 479  -247.973
 480  190.6402
 481  324.3415
 482  404.7877
 483  392.1889
 484  819.1401
 485  801.4578
 486  351.406
 487  585.3818
 488  547.3295
 489  547.1004
 490  523.8458
 491  356.3396
 492  910.8098
 493  799.1247
 494  641.4458
 495  412.6906
 496  402.1921
 497  198.2586
 498  415.366
 499  274.3566
 500  102.0994
 501  -304.7354
 502  -263.8867
 503  -82.51279
 504  -260.7159
 505  -326.2861
 506  -620.7723
 507  -296.8221
 508  163.0558
 509  -300.099
 510  -466.7329
 511  -741.4983
