# Input file       =  1209460304.110143_cleaned.dat
# Candidate        =  PSR_0332+5434
# Telescope        =  AR
# Epoch_topo       =  58242.383369330360
# Epoch_bary       =  N/A
# T_sample         =  0.002
# Data Folded      =  7340032
# Data Avg         =  0.0797127881564425
# Data StdDev      =  1.00014513442998 
# Profile Bins     =  512
# Profile Avg      =  1142.39410632426 
# Profile StdDev   =  119.75041376275  
# Reduced chi-sqr  =  0.672
# Prob(Noise)      <  1   (~0.0 sigma)
# P_topo (ms)      =  714.543660571908  +/- 0.000837
# P'_topo (s/s)    =  -0                +/- 4.41e-10
# P''_topo (s/s^2) =  0                 +/- 1.95e-13
# P_bary (ms)      =  N/A
# P'_bary (s/s)    =  N/A
# P''_bary (s/s^2) =  N/A
# P_orb (s)        =  N/A
# asin(i)/c (s)    =  N/A
# eccentricity     =  N/A
# w (rad)          =  N/A
# T_peri           =  N/A
######################################################
   0  1346.615
   1  1212.45
   2  1241.713
   3  1250.578
   4  1190.845
   5  1201.013
   6  1237.678
   7  1272.861
   8  1197.953
   9  1154.348
  10  1107.727
  11  1080.676
  12  1119.95
  13  1170.622
  14  1167.608
  15  1094.16
  16  1083.815
  17  1107.014
  18  1095.945
  19  1091.236
  20  1092.981
  21  1179.729
  22  1120.829
  23  1144.858
  24  1158.855
  25  1137.99
  26  1108.47
  27  1109.842
  28  1162.304
  29  1141.577
  30  1090.065
  31  1141.893
  32  1132.921
  33  1092.688
  34  1129.125
  35  1194.083
  36  1189.907
  37  1130.419
  38  1164.12
  39  1148.796
  40  1162.881
  41  1132.131
  42  1127.69
  43  1152.95
  44  1164.288
  45  1125.553
  46  1137.956
  47  1042.112
  48  1053.468
  49  1149.011
  50  1211.067
  51  1256.735
  52  1179.325
  53  1163.807
  54  1084.901
  55  1102.172
  56  1109.793
  57  1151.446
  58  1189.626
  59  1199.049
  60  1150.356
  61  1175.351
  62  1101.633
  63  1076.02
  64  1075.699
  65  1089.138
  66  1139.642
  67  1139.757
  68  1151.787
  69  1078.362
  70  1089.55
  71  1136.129
  72  1105.06
  73  1150.536
  74  1206.392
  75  1220.245
  76  1217.849
  77  1116.967
  78  1021.356
  79  1063.226
  80  1135.509
  81  1218.767
  82  1191.53
  83  1165.261
  84  1134.341
  85  1173.42
  86  1156.417
  87  1185.144
  88  1276.747
  89  1229.089
  90  1189.896
  91  1221.398
  92  1257.344
  93  1200.801
  94  1174.258
  95  1126.85
  96  1117.964
  97  1118.975
  98  1057.481
  99  1160.607
 100  1188.135
 101  1094.057
 102  1069.881
 103  1071.806
 104  1081.299
 105  1120.102
 106  1122.7
 107  1169.682
 108  1139.792
 109  1154.747
 110  1075.377
 111  1041.113
 112  1059.932
 113  1106.598
 114  1111.783
 115  1158.624
 116  1169.053
 117  1134.898
 118  1144.063
 119  1163.662
 120  1129.106
 121  1179.407
 122  1183.949
 123  1142.667
 124  1178.237
 125  1195.834
 126  1085.405
 127  1036.411
 128  1093.071
 129  1142.015
 130  1127.392
 131  1112.186
 132  1116.431
 133  1059.066
 134  1129.343
 135  1156.933
 136  1167.944
 137  1210.05
 138  1148.311
 139  1142.158
 140  1118.187
 141  1112.399
 142  1143.42
 143  1154.084
 144  1102.076
 145  1097.032
 146  1208.267
 147  1157.664
 148  1156.3
 149  1145.959
 150  1117.209
 151  1150.776
 152  1238.073
 153  1284.267
 154  1253.343
 155  1123.207
 156  1051.95
 157  1062.051
 158  1133.716
 159  1144.64
 160  1157.037
 161  1082.424
 162  1079.143
 163  1151.506
 164  1154.219
 165  1182.278
 166  1201.995
 167  1200.351
 168  1128.671
 169  1107.663
 170  1177.721
 171  1125.073
 172  1072.125
 173  1159.082
 174  1196.763
 175  1202.486
 176  1260.454
 177  1271.906
 178  1206.933
 179  1168.272
 180  1102.62
 181  1140.568
 182  1215.448
 183  1173.057
 184  1114.33
 185  1157.578
 186  1189.301
 187  1218.571
 188  1186.278
 189  1130.635
 190  1145.122
 191  1144.716
 192  1075.554
 193  1041.186
 194  1118.199
 195  1101.778
 196  1067.118
 197  1023.812
 198  1031.1
 199  1097.521
 200  1086.557
 201  1057.635
 202  1160.205
 203  1126.096
 204  1155.723
 205  1141.778
 206  1043.574
 207  1093.051
 208  1178.266
 209  1158.111
 210  1113.886
 211  1071.215
 212  1133.914
 213  1151.004
 214  1132.628
 215  1140.49
 216  1128.77
 217  1146.746
 218  1253.492
 219  1225.052
 220  1212.986
 221  1256.048
 222  1384.64
 223  1470.343
 224  1521.093
 225  1491.133
 226  1400.063
 227  1256.649
 228  1089.598
 229  1093.078
 230  1094.593
 231  1157.682
 232  1053.846
 233  1055.608
 234  1119.711
 235  1095.478
 236  1137.792
 237  1180.006
 238  1179.974
 239  1210.202
 240  1264.864
 241  1200.427
 242  1157.96
 243  1182.126
 244  1168.488
 245  1237.508
 246  1223.979
 247  1242.998
 248  1207.526
 249  1163.064
 250  1186.799
 251  1246.587
 252  1221.905
 253  1206.806
 254  1202.92
 255  1280.164
 256  1188.415
 257  1221.278
 258  1259.223
 259  1233.33
 260  1212.135
 261  1244.132
 262  1212.078
 263  1257.333
 264  1289.263
 265  1222.083
 266  1247.271
 267  1197.485
 268  1211.662
 269  1223.765
 270  1105.977
 271  1166.36
 272  1154.697
 273  1156.908
 274  1227.2
 275  1235.769
 276  1177.58
 277  1149.782
 278  1159.729
 279  1135.434
 280  1165.075
 281  1279.598
 282  1254.275
 283  1175.934
 284  1223.994
 285  1248.21
 286  1315.347
 287  1269.314
 288  1180.283
 289  1178.01
 290  1228.998
 291  1202.41
 292  1188.59
 293  1200.535
 294  1167.876
 295  1109.539
 296  1122.804
 297  1205.489
 298  1192.243
 299  1237.1
 300  1168.589
 301  1161.679
 302  1226.867
 303  1217.19
 304  1204.105
 305  1195.11
 306  1133.793
 307  1163.692
 308  1127.558
 309  1079.225
 310  1199.172
 311  1211.793
 312  1185.9
 313  1123.595
 314  1068.873
 315  1021.14
 316  1056.618
 317  1153.314
 318  1147.32
 319  1124.121
 320  1138.683
 321  1133.244
 322  1045.213
 323  971.0096
 324  1061.275
 325  1092.951
 326  1056.105
 327  1093.325
 328  1141.38
 329  1105.71
 330  1144.684
 331  1163.953
 332  1160.006
 333  1126.601
 334  1109.672
 335  1068.25
 336  1145.096
 337  1162.51
 338  1116.677
 339  1129.334
 340  1137.751
 341  1060.975
 342  1091.064
 343  1056.86
 344  1085.891
 345  1131.938
 346  1148.423
 347  1109.697
 348  1105.254
 349  1076.096
 350  1070.834
 351  1138.044
 352  1145.527
 353  1076.352
 354  1086.52
 355  1054.884
 356  1107.409
 357  1117.928
 358  1075.078
 359  1171.975
 360  1182.91
 361  1186.245
 362  1159.352
 363  1114.566
 364  1113.525
 365  1120.529
 366  1126.531
 367  1101.772
 368  1151.526
 369  1123.829
 370  1039.525
 371  1148.429
 372  1134.636
 373  1006.379
 374  1066.131
 375  1105.394
 376  1097.284
 377  1117.709
 378  1126.077
 379  1060.754
 380  1093.529
 381  1110.509
 382  1081.335
 383  1145.373
 384  1102.808
 385  1154.601
 386  1207.119
 387  1206.268
 388  1210.09
 389  1164.765
 390  1156.127
 391  1146.428
 392  1204.565
 393  1178.848
 394  1189.779
 395  1183.319
 396  1214.359
 397  1118.894
 398  1100.21
 399  1177.974
 400  1185.562
 401  1167.16
 402  1180.859
 403  1185.878
 404  1119.391
 405  1114.846
 406  1095.271
 407  1062.922
 408  1064.504
 409  1092.951
 410  1069.271
 411  995.5252
 412  982.5022
 413  985.1492
 414  1002.837
 415  1045.219
 416  1051.166
 417  1102.267
 418  1113.484
 419  1106.066
 420  1193.062
 421  1166.353
 422  1135.27
 423  1090.706
 424  1089.658
 425  1084.197
 426  1084.415
 427  1064.667
 428  1069.212
 429  1099.954
 430  1073.448
 431  1110.037
 432  1110.285
 433  1084.696
 434  1104.13
 435  1095.442
 436  1051.932
 437  1023.765
 438  1014.662
 439  975.7877
 440  969.886
 441  1009.074
 442  980.2358
 443  1011.146
 444  1073.877
 445  1011.133
 446  1036.792
 447  1101.103
 448  1069.838
 449  1053.9
 450  1073.02
 451  1105.787
 452  1120.065
 453  1128.065
 454  1116.136
 455  1108.088
 456  1034.806
 457  1033.18
 458  1092.443
 459  1057.196
 460  1031.393
 461  1065.035
 462  1062.462
 463  1113.15
 464  1111.535
 465  1053.737
 466  1109.861
 467  1132.147
 468  1117.177
 469  1150.7
 470  1087.621
 471  988.6766
 472  1000.658
 473  1024.01
 474  1102.457
 475  1031.379
 476  1063.526
 477  1123.644
 478  1047.67
 479  1059.961
 480  1104.229
 481  1115.255
 482  1116.675
 483  1135.346
 484  1103.7
 485  1077.807
 486  1151.147
 487  1151.205
 488  1185.435
 489  1096.952
 490  1050.196
 491  1133.077
 492  1191.11
 493  1162.985
 494  1128.086
 495  1165.231
 496  1178.175
 497  1219.158
 498  1221.779
 499  1193.974
 500  1185.943
 501  1264.35
 502  1193.393
 503  1184.713
 504  1239.102
 505  1239.031
 506  1218.523
 507  1196.325
 508  1196.002
 509  1228.489
 510  1262.364
 511  1390.246
