# Input file       =  1209359564.108885_cleaned.dat
# Candidate        =  PSR_0332+5434
# Telescope        =  AR
# Epoch_topo       =  58241.217397093576
# Epoch_bary       =  N/A
# T_sample         =  0.002
# Data Folded      =  7143424
# Data Avg         =  0.466412240939444
# Data StdDev      =  7.61540919471306 
# Profile Bins     =  512
# Profile Avg      =  6507.31583519263 
# Profile StdDev   =  899.521354329702 
# Reduced chi-sqr  =  1.210
# Prob(Noise)      <  0.000775   (~3.2 sigma)
# P_topo (ms)      =  714.544715504657  +/- 4.52e-05
# P'_topo (s/s)    =  -0                +/- 2.45e-11
# P''_topo (s/s^2) =  0                 +/- 1.11e-14
# P_bary (ms)      =  N/A
# P'_bary (s/s)    =  N/A
# P''_bary (s/s^2) =  N/A
# P_orb (s)        =  N/A
# asin(i)/c (s)    =  N/A
# eccentricity     =  N/A
# w (rad)          =  N/A
# T_peri           =  N/A
######################################################
   0  5497.853
   1  6247.576
   2  6158.542
   3  6003.367
   4  6170.387
   5  6736.104
   6  6329.753
   7  5913.644
   8  5918.858
   9  6743.339
  10  7521.482
  11  7535.449
  12  7717.929
  13  7319.163
  14  7294.19
  15  6160.635
  16  5327.108
  17  6238.27
  18  6593.151
  19  6442.563
  20  6224.812
  21  6951.953
  22  6669.767
  23  5748.165
  24  5965.603
  25  6012.657
  26  6790.155
  27  7973.602
  28  7351.184
  29  7134.685
  30  7036
  31  6623.24
  32  5760.96
  33  5104.849
  34  5403.662
  35  5787.359
  36  5973.203
  37  6199.42
  38  6686.4
  39  6566.705
  40  6765.363
  41  6260.158
  42  6799.428
  43  6996.016
  44  6845.736
  45  7099.718
  46  7022.367
  47  7244.586
  48  6055.989
  49  5396.811
  50  5149.802
  51  6103.77
  52  5729.486
  53  5790.704
  54  6423.563
  55  5981.421
  56  6247.81
  57  5528.47
  58  5951.788
  59  7019.023
  60  7502.306
  61  7783.774
  62  6770.482
  63  6783.684
  64  6718.706
  65  6018.613
  66  6196.097
  67  6066.985
  68  6240.801
  69  5932.419
  70  6165.961
  71  6793.722
  72  6544.11
  73  5859.687
  74  6107.785
  75  6598.791
  76  7173.509
  77  7666.066
  78  7446.497
  79  7518.435
  80  7031.957
  81  6787.631
  82  6078.582
  83  5998.36
  84  5933.047
  85  5789.538
  86  6318.141
  87  6568.586
  88  6618.686
  89  6045.312
  90  6016.099
  91  6662.959
  92  7207.324
  93  7412.436
  94  7202.28
  95  7387.048
  96  7123.295
  97  6878.718
  98  5966.255
  99  5094.797
 100  5702.315
 101  6015.302
 102  6467.351
 103  7043.325
 104  6656.586
 105  6438.71
 106  5825.938
 107  5600.186
 108  6052.879
 109  6762.832
 110  7614.223
 111  7094.127
 112  7220.241
 113  7455.668
 114  6168.153
 115  5925.654
 116  5530.129
 117  5508.529
 118  5966.259
 119  6095.24
 120  6340.479
 121  6325.338
 122  6346.42
 123  6539.615
 124  5983.081
 125  6427.961
 126  6956.674
 127  6972.788
 128  6937.622
 129  6725.153
 130  6768.064
 131  6058.827
 132  4933.231
 133  4775.605
 134  5209.936
 135  5981.568
 136  6798.465
 137  6863.032
 138  6322.034
 139  6284.921
 140  6329.863
 141  6656.301
 142  7599.728
 143  7800.576
 144  7422.677
 145  6928.857
 146  6662.729
 147  6147.175
 148  5892.879
 149  6459.668
 150  6717.815
 151  5848.001
 152  5480.295
 153  6154.09
 154  6355.767
 155  6277.657
 156  6221.312
 157  7516.657
 158  7127.653
 159  7183.664
 160  7794.961
 161  6546.914
 162  6820.139
 163  6801.798
 164  6397.788
 165  6141.369
 166  5922.596
 167  6028.25
 168  5951.688
 169  6484.444
 170  6820.96
 171  7048.255
 172  6384.969
 173  6095.171
 174  6830.708
 175  7392.422
 176  7905.095
 177  7668.637
 178  7755.026
 179  7305.898
 180  6929.8
 181  5851.26
 182  5747.41
 183  6152.046
 184  6736.042
 185  7553.609
 186  7741.258
 187  7882.65
 188  7898.892
 189  8298.614
 190  8181.575
 191  8842.779
 192  8889.038
 193  8248.996
 194  8168.563
 195  7356.135
 196  6774.848
 197  5556.812
 198  5514.749
 199  6309.029
 200  6230.392
 201  6845.424
 202  6236.315
 203  6191.522
 204  6925.979
 205  6014.675
 206  5643.406
 207  5876.748
 208  6553.579
 209  7230.821
 210  7077.245
 211  7556.406
 212  7372.906
 213  6455.9
 214  5657.03
 215  5059.604
 216  5464.551
 217  5558.643
 218  5872.637
 219  6895.49
 220  7249.498
 221  6101.262
 222  6242.61
 223  5997.551
 224  7344.335
 225  7541.45
 226  7131.097
 227  6822.746
 228  6485.388
 229  6636.729
 230  6002.219
 231  5513.133
 232  5426.761
 233  5605.146
 234  5482.448
 235  5421.455
 236  6238.112
 237  6233.296
 238  6806.188
 239  6279.167
 240  6774.11
 241  6850.339
 242  7160.365
 243  7980.674
 244  6900.157
 245  7400.884
 246  6942.003
 247  5834.223
 248  5473.862
 249  5617.849
 250  5917.958
 251  6273.062
 252  6485.088
 253  6562.982
 254  6611.816
 255  5878.238
 256  6390.697
 257  6190.322
 258  7180.896
 259  7375.003
 260  7021.53
 261  7320.681
 262  6702.829
 263  6120.048
 264  5486.289
 265  5726.782
 266  6405.948
 267  6028.111
 268  6385.335
 269  6114.302
 270  6172.478
 271  6368.111
 272  6354.638
 273  6180.872
 274  7278.221
 275  7602.63
 276  6855.91
 277  7193.406
 278  7148.896
 279  6335.625
 280  4793.489
 281  4769.177
 282  5445.398
 283  6106.474
 284  7007.535
 285  6792.982
 286  6297.033
 287  6122.389
 288  5105.2
 289  5228.596
 290  6203.749
 291  6990.922
 292  7577.337
 293  7537.697
 294  7375.157
 295  6922.528
 296  5543.12
 297  4876.032
 298  5385.525
 299  5152.85
 300  5460.502
 301  5487.743
 302  6099.275
 303  6577.561
 304  5582.699
 305  6359.104
 306  5988.375
 307  7102.397
 308  7154.396
 309  6464.558
 310  7048.571
 311  6770.222
 312  6666.029
 313  5851.894
 314  5301.9
 315  5231.783
 316  5563.936
 317  6195.657
 318  6696.778
 319  7251.252
 320  6724.177
 321  6517.669
 322  6040.541
 323  6319.745
 324  6689.243
 325  6834.149
 326  7138.661
 327  7122.604
 328  7309.296
 329  5819.087
 330  5558.143
 331  5733.659
 332  6450.347
 333  6186.595
 334  5980.496
 335  6216.734
 336  5877.302
 337  6494.478
 338  5948.492
 339  6560.531
 340  7133.25
 341  7812.948
 342  7795.797
 343  7036.583
 344  7378.396
 345  6193.172
 346  5521.9
 347  5591.156
 348  6092.408
 349  6602.267
 350  6095.167
 351  6305.252
 352  6497.211
 353  6380.495
 354  6116.817
 355  6263.068
 356  6830.099
 357  7875.723
 358  7787.935
 359  7246.269
 360  7102.414
 361  6706.985
 362  6401.938
 363  5298.96
 364  5273.646
 365  5849.157
 366  6471.91
 367  7055.297
 368  6921.24
 369  6904.345
 370  7054.017
 371  5766.997
 372  5927.92
 373  6793.228
 374  7905.147
 375  7625.835
 376  7575.125
 377  7811.439
 378  6526.8
 379  5121.899
 380  5126.517
 381  5690.519
 382  5746.191
 383  5825.741
 384  6372.689
 385  6520.752
 386  6640.833
 387  6060.862
 388  5983.127
 389  6242.552
 390  6876.019
 391  7366.537
 392  6680.238
 393  7616.154
 394  7864.513
 395  6553.001
 396  6137.057
 397  5788.12
 398  5639.208
 399  5544.601
 400  6080.913
 401  6827.053
 402  6966.457
 403  6020.624
 404  6489.623
 405  5985.442
 406  6958.668
 407  7509.677
 408  6992.994
 409  6906.132
 410  6806.809
 411  6500.056
 412  6392.309
 413  6199.626
 414  6251.923
 415  6583.918
 416  6652.017
 417  6504.93
 418  6615.523
 419  6339.886
 420  6570.432
 421  6416.273
 422  7311.995
 423  7865.183
 424  7749.285
 425  7781.268
 426  7491.107
 427  7353.733
 428  6270.701
 429  5395.853
 430  6182.926
 431  6636.198
 432  6900.35
 433  6332.324
 434  6522.615
 435  6567.836
 436  6578.01
 437  6275.883
 438  6610.151
 439  7389.188
 440  8225.423
 441  7907.498
 442  7338.489
 443  7168.338
 444  6693.079
 445  5934.35
 446  5756.846
 447  6014.61
 448  6326.993
 449  5974.542
 450  6594.134
 451  6889.549
 452  6510.089
 453  6186.471
 454  5822.039
 455  6437.285
 456  7114.362
 457  7044.937
 458  7119.57
 459  7529.371
 460  7364.26
 461  6385.172
 462  5366.389
 463  5002.108
 464  5464.62
 465  5446.124
 466  5881.03
 467  6508.323
 468  6433.724
 469  6715.846
 470  5802.018
 471  5481.86
 472  6229.362
 473  6307.776
 474  7153.469
 475  6795.312
 476  7407.458
 477  6868.351
 478  5635.302
 479  5418.997
 480  5811.384
 481  5639.574
 482  5785.225
 483  5938.895
 484  6445.649
 485  6700.23
 486  5305.614
 487  6256.817
 488  6633.139
 489  7421.077
 490  8265.974
 491  7096.864
 492  6786.355
 493  6503.375
 494  6085.652
 495  6190.233
 496  6113.468
 497  6248.504
 498  6369.526
 499  6598.417
 500  6515.233
 501  6591.862
 502  6241.047
 503  5997.891
 504  5963.169
 505  7037.242
 506  7755.737
 507  7423.729
 508  7138.358
 509  7118.885
 510  6997.206
 511  5845.516
