# Input file       =  1209632602.116271_cleaned.dat
# Candidate        =  PSR_0332+5434
# Telescope        =  AR
# Epoch_topo       =  58244.377559216096
# Epoch_bary       =  N/A
# T_sample         =  0.002
# Data Folded      =  7340032
# Data Avg         =  0.0824593080677529
# Data StdDev      =  4.46809742952347 
# Profile Bins     =  512
# Profile Avg      =  1181.71479268635 
# Profile StdDev   =  534.978872064069 
# Reduced chi-sqr  =  1.033
# Prob(Noise)      <  0.295   (~0.5 sigma)
# P_topo (ms)      =  714.541815959372  +/- 0.00042
# P'_topo (s/s)    =  -0                +/- 2.22e-10
# P''_topo (s/s^2) =  0                 +/- 9.78e-14
# P_bary (ms)      =  N/A
# P'_bary (s/s)    =  N/A
# P''_bary (s/s^2) =  N/A
# P_orb (s)        =  N/A
# asin(i)/c (s)    =  N/A
# eccentricity     =  N/A
# w (rad)          =  N/A
# T_peri           =  N/A
######################################################
   0  985.6075
   1  980.0984
   2  1111.188
   3  1212.144
   4  1032.456
   5  1090.378
   6  975.7764
   7  668.2332
   8  919.4852
   9  1110.86
  10  1013.95
  11  1215.036
  12  1472.034
  13  1477.845
  14  1469.704
  15  1321.213
  16  1669.744
  17  1749.446
  18  1633.54
  19  1523.439
  20  1316.069
  21  1249.078
  22  981.6834
  23  1088.192
  24  1365.03
  25  1367.18
  26  1425.556
  27  1354.323
  28  1357.871
  29  1109.927
  30  1079.629
  31  1067.538
  32  984.0262
  33  921.2803
  34  814.385
  35  942.2981
  36  1112.306
  37  987.2739
  38  1057.014
  39  1277.999
  40  1184.747
  41  1016.625
  42  960.7897
  43  1156.743
  44  1366.455
  45  1228.229
  46  1311.419
  47  1317.641
  48  1271.445
  49  1436.789
  50  1348.535
  51  1352.587
  52  1205.808
  53  1063.519
  54  1150.81
  55  1149.536
  56  1083.846
  57  1285.932
  58  1631.826
  59  1368.92
  60  1383.014
  61  1278.403
  62  1278.522
  63  1076.719
  64  888.2801
  65  1150.589
  66  1209.439
  67  961.4603
  68  612.7916
  69  552.6934
  70  1216.974
  71  928.9939
  72  658.7842
  73  853.8583
  74  896.4622
  75  860.5298
  76  639.5042
  77  850.8026
  78  1250.572
  79  1331.401
  80  1319.578
  81  1350.678
  82  1319.832
  83  1369.564
  84  1113.729
  85  1472.604
  86  1311.4
  87  898.7499
  88  897.2347
  89  916.3091
  90  1036.723
  91  1166.073
  92  1454.724
  93  1655.394
  94  1528.119
  95  1533.131
  96  1245.724
  97  1218.348
  98  1327.15
  99  1659.538
 100  1647.379
 101  1086.549
 102  1544.67
 103  1545.842
 104  852.8491
 105  905.3502
 106  1415.884
 107  1422.712
 108  1414.505
 109  1539.676
 110  1579.048
 111  2119.245
 112  2292.952
 113  2041.287
 114  1734.49
 115  1740.096
 116  2073.476
 117  1979.842
 118  1752.856
 119  1658.471
 120  1477.762
 121  1445.604
 122  1411.964
 123  1458.367
 124  1520.953
 125  1747.879
 126  1865.436
 127  1409.664
 128  1416.593
 129  1515.682
 130  1324.701
 131  1442.526
 132  1345.03
 133  1376.677
 134  1064.521
 135  1081.911
 136  1034.416
 137  935.8965
 138  1006.005
 139  1044.872
 140  1246.342
 141  1257.984
 142  1103.436
 143  1226.028
 144  1587.525
 145  1508.978
 146  1354.319
 147  1464.807
 148  1318.473
 149  1058.773
 150  854.8953
 151  718.1974
 152  922.237
 153  873.0445
 154  804.6323
 155  826.9164
 156  682.4113
 157  701.0487
 158  548.6979
 159  944.0088
 160  822.3011
 161  764.893
 162  826.0974
 163  935.7817
 164  724.4379
 165  828.9753
 166  1002.748
 167  691.243
 168  623.2838
 169  763.9423
 170  877.0018
 171  729.3199
 172  801.1492
 173  887.9329
 174  759.664
 175  1013.26
 176  1025.014
 177  1436.139
 178  1423.352
 179  1348.696
 180  1491.774
 181  1070.517
 182  1185.439
 183  1145.316
 184  1407.923
 185  1657.662
 186  1358.762
 187  1137.633
 188  987.8597
 189  1274.335
 190  1091.954
 191  696.8861
 192  916.9452
 193  1063.849
 194  1118.651
 195  1097.84
 196  821.8646
 197  1112.345
 198  1076.722
 199  1165.803
 200  899.2851
 201  1034.585
 202  1139.699
 203  1047.006
 204  1040.542
 205  1129.165
 206  1166.815
 207  1106.956
 208  978.8965
 209  1048.984
 210  1243.812
 211  1397.303
 212  1149.068
 213  1167.839
 214  1409.142
 215  1193.062
 216  947.4462
 217  565.7458
 218  967.1528
 219  1128.384
 220  904.7745
 221  782.8613
 222  1004.474
 223  1035.676
 224  1018.841
 225  1432.874
 226  1202.245
 227  1252.194
 228  1065.453
 229  971.6596
 230  1043.505
 231  963.339
 232  1267.22
 233  1307.022
 234  1289.428
 235  990.2605
 236  825.5829
 237  469.5718
 238  460.74
 239  884.1774
 240  1020.421
 241  918.5527
 242  923.4288
 243  1048.539
 244  990.8656
 245  747.6937
 246  847.8414
 247  737.8629
 248  780.0798
 249  757.2584
 250  791.8025
 251  1021.862
 252  579.6046
 253  542.5445
 254  632.2787
 255  940.0219
 256  863.7938
 257  722.1401
 258  822.9734
 259  865.2847
 260  1011.786
 261  1029.317
 262  944.4836
 263  931.4308
 264  825.9423
 265  1050.156
 266  1279.698
 267  1149.782
 268  1093.376
 269  914.5203
 270  850.2191
 271  594.0612
 272  418.7119
 273  533.9382
 274  908.0906
 275  1145.891
 276  1268.65
 277  1322.186
 278  1314.089
 279  1281.287
 280  1373.529
 281  1487.443
 282  1380.431
 283  1771.917
 284  1367.433
 285  871.9528
 286  1245.434
 287  1374.731
 288  848.481
 289  1195.054
 290  1439.584
 291  1283.011
 292  1483.735
 293  1328.645
 294  1643.629
 295  1842.864
 296  2045.242
 297  2282.206
 298  2916.709
 299  3352.433
 300  3623.117
 301  3517.03
 302  3263.594
 303  2785.791
 304  2177.715
 305  2193.717
 306  1746.776
 307  1715.251
 308  1757.285
 309  1699.173
 310  1281.778
 311  1205.671
 312  1375.389
 313  1884.478
 314  1673.095
 315  1547.825
 316  1790.97
 317  1594.294
 318  1311.131
 319  1160.347
 320  1157.218
 321  1134.936
 322  1214.247
 323  1422.598
 324  1075.979
 325  1108.185
 326  1356.718
 327  1572.995
 328  1312.713
 329  1271.603
 330  1323.656
 331  1317.432
 332  1234.44
 333  1059.67
 334  1009.852
 335  1070.183
 336  1193.462
 337  1078.055
 338  1241.705
 339  1458.856
 340  1799.914
 341  1404.225
 342  1162.201
 343  1128.01
 344  1176.338
 345  1123.736
 346  1194.675
 347  1047.609
 348  1036.872
 349  1058.528
 350  1208.429
 351  1076.381
 352  1164.155
 353  1121.398
 354  1333.419
 355  1465.042
 356  1336.869
 357  1150.407
 358  758.9554
 359  1025.027
 360  1287.454
 361  1101.479
 362  1015.753
 363  1130.668
 364  1119.536
 365  729.6912
 366  813.4692
 367  656.0532
 368  751.1922
 369  670.3097
 370  398.4004
 371  241.9432
 372  704.5395
 373  736.3018
 374  760.7756
 375  845.8989
 376  777.0714
 377  867.78
 378  735.1228
 379  920.6882
 380  1233.311
 381  1319.213
 382  731.5477
 383  172.2795
 384  196.0284
 385  360.6093
 386  703.0936
 387  428.5934
 388  576.3026
 389  876.458
 390  895.988
 391  452.8246
 392  530.7285
 393  821.3843
 394  1056.089
 395  1145.325
 396  1252.941
 397  1307.215
 398  1328.798
 399  1442.362
 400  1020.961
 401  1023.821
 402  1201.29
 403  987.9631
 404  1098.356
 405  1144.12
 406  976.3434
 407  1114.884
 408  1057.092
 409  1346.266
 410  1378.048
 411  1560.126
 412  1285.6
 413  806.7698
 414  1250.206
 415  1152.782
 416  1104.601
 417  1264.771
 418  989.7068
 419  1074.73
 420  1046.373
 421  1651.982
 422  1593.146
 423  1213.283
 424  1020.931
 425  1079.912
 426  1253.282
 427  1306.443
 428  1207.147
 429  1515.29
 430  1576.741
 431  1340.77
 432  1172.863
 433  1301.276
 434  1246.884
 435  1456.549
 436  1586.008
 437  1424.377
 438  1432.8
 439  1365.415
 440  1547.349
 441  1345.67
 442  1420.421
 443  1461.999
 444  1830.111
 445  1794.335
 446  1770.709
 447  1386.908
 448  1233.175
 449  1608.597
 450  1305.512
 451  1062.11
 452  1006.966
 453  1400.739
 454  1650.33
 455  1477.099
 456  1465.04
 457  1345.411
 458  1276.506
 459  1182.435
 460  1423.602
 461  1641.939
 462  1732.295
 463  1337.357
 464  1015.344
 465  1149.537
 466  1357.397
 467  1247.255
 468  932.6647
 469  813.7576
 470  1158.433
 471  1263.525
 472  1176.331
 473  1150.258
 474  1003.936
 475  1111.566
 476  1417.565
 477  1394.073
 478  1026.963
 479  1163.518
 480  1166.653
 481  1204.841
 482  929.9116
 483  1122.76
 484  1188.172
 485  756.3657
 486  582.7667
 487  992.1052
 488  1131.996
 489  1499.147
 490  1289.604
 491  1196.576
 492  979.9023
 493  1024.079
 494  931.0974
 495  952.8035
 496  1114.607
 497  1014.869
 498  753.0369
 499  667.0706
 500  859.8814
 501  714.4961
 502  668.5565
 503  1109.002
 504  747.324
 505  938.161
 506  723.4363
 507  807.9071
 508  902.4291
 509  1111.245
 510  1033.878
 511  1029.448
