# Input file       =  1209531821.109581_cleaned.dat
# Candidate        =  PSR_0332+5434
# Telescope        =  AR
# Epoch_topo       =  58243.211112379409
# Epoch_bary       =  N/A
# T_sample         =  0.002
# Data Folded      =  7143424
# Data Avg         =  0.294462077925196
# Data StdDev      =  5.95856400447976 
# Profile Bins     =  256
# Profile Avg      =  8216.76234751902 
# Profile StdDev   =  995.347752955682 
# Reduced chi-sqr  =  1.505
# Prob(Noise)      <  3.21e-07   (~5.0 sigma)
# P_topo (ms)      =  714.542887184283  +/- 4.23e-05
# P'_topo (s/s)    =  -0                +/- 2.29e-11
# P''_topo (s/s^2) =  0                 +/- 1.04e-14
# P_bary (ms)      =  N/A
# P'_bary (s/s)    =  N/A
# P''_bary (s/s^2) =  N/A
# P_orb (s)        =  N/A
# asin(i)/c (s)    =  N/A
# eccentricity     =  N/A
# w (rad)          =  N/A
# T_peri           =  N/A
######################################################
   0  8233.738
   1  8553.665
   2  7781.365
   3  8535.183
   4  9488.511
   5  8527.211
   6  7587.03
   7  7239.606
   8  7793.626
   9  8057.015
  10  8291.603
  11  7693.332
  12  8831.696
  13  9077.399
  14  9089.413
  15  7373.801
  16  7076.341
  17  8551.276
  18  7905.306
  19  7926.476
  20  8906.928
  21  8978.021
  22  7344.101
  23  6505.055
  24  8203.721
  25  8600.082
  26  7897.683
  27  7727.149
  28  9249.621
  29  9429.469
  30  7975.249
  31  6040.705
  32  6653.221
  33  8483.845
  34  7416.929
  35  6467.705
  36  7728.042
  37  8928.346
  38  8255.367
  39  6936.554
  40  6985.181
  41  7453.875
  42  8184.329
  43  7927.683
  44  6641.275
  45  8670.105
  46  8198.17
  47  7283.008
  48  5631.271
  49  6535.562
  50  8609.468
  51  8081.113
  52  7469.988
  53  8636.078
  54  9227.28
  55  7456.185
  56  7491.859
  57  7774.631
  58  8435.109
  59  8165.35
  60  8190.25
  61  8892.192
  62  9768.092
  63  9078.485
  64  7817.537
  65  7235.85
  66  9323.833
  67  9559.61
  68  7787.09
  69  8977.187
  70  10079.64
  71  8890.028
  72  7655.05
  73  6750.473
  74  8881.358
  75  9261.492
  76  8438.084
  77  8252.807
  78  10102.1
  79  9561.004
  80  8313.567
  81  6467.998
  82  7592.524
  83  8637.287
  84  7572.911
  85  7241.091
  86  7849.982
  87  9312.377
  88  7998.95
  89  7060.312
  90  6402.406
  91  8288.68
  92  8210.58
  93  7409.382
  94  8388.861
  95  9134.082
  96  8003.636
  97  7034.826
  98  6817.481
  99  7635.525
 100  7703.031
 101  8201.858
 102  7910.039
 103  9156.82
 104  8728.567
 105  6367.634
 106  6913.766
 107  8212.771
 108  8681.107
 109  8450.843
 110  8075.005
 111  9774.358
 112  9561.639
 113  7544.969
 114  6861.549
 115  8787.461
 116  9170.214
 117  7435.384
 118  8785.061
 119  9859.922
 120  9618.825
 121  8503.436
 122  7782.827
 123  7567.285
 124  8881.719
 125  8960.295
 126  7538.052
 127  8583.916
 128  10853.74
 129  9074.532
 130  8312.574
 131  6998.678
 132  8864.26
 133  9445.989
 134  8796.526
 135  8284.087
 136  9836.942
 137  8873.603
 138  8509.357
 139  7453.895
 140  8594.354
 141  8652.176
 142  8809.07
 143  8779.628
 144  9662.489
 145  10288.64
 146  8751.797
 147  8261.775
 148  9748.004
 149  10574.12
 150  12533.12
 151  12078.73
 152  10512.91
 153  10036.12
 154  8306.021
 155  7494.371
 156  8169.338
 157  9799.218
 158  8639.704
 159  7872.286
 160  8237.724
 161  10110.98
 162  8723.896
 163  6911.219
 164  6308.076
 165  8285.047
 166  9216.896
 167  7534.758
 168  7865.253
 169  10686.54
 170  9419.06
 171  7690.189
 172  6497.918
 173  8147.14
 174  8962.628
 175  8270.906
 176  7614.519
 177  9130.172
 178  9139.459
 179  8083.895
 180  7282.349
 181  7783.455
 182  8285.085
 183  7989.072
 184  8643.681
 185  9100.787
 186  9857.798
 187  8036.065
 188  6812.799
 189  8081.96
 190  8385.564
 191  7174.871
 192  8783.71
 193  8496.739
 194  9631.036
 195  7173.154
 196  6279.418
 197  6046.279
 198  7514.254
 199  7626.841
 200  6651.145
 201  7686.338
 202  8958.131
 203  8275.047
 204  6918.76
 205  6280.906
 206  7627.689
 207  8741.722
 208  6556.256
 209  6360.712
 210  8864.414
 211  8664.479
 212  7065.641
 213  5688.839
 214  5926.629
 215  8066.701
 216  8282.081
 217  7857.164
 218  9093.908
 219  9474.394
 220  7569.037
 221  7816.226
 222  6891.562
 223  7623.841
 224  7913.509
 225  9132.382
 226  8654.844
 227  9548.717
 228  8328.941
 229  8301.161
 230  7644.406
 231  7943.722
 232  8346.604
 233  7998.084
 234  7864.688
 235  9826.632
 236  8474.807
 237  6925.866
 238  7872.065
 239  8730.372
 240  7477.806
 241  6889.268
 242  8671.498
 243  9610.442
 244  8548.131
 245  7251.634
 246  7221.827
 247  8150.876
 248  8971.192
 249  7245.464
 250  7154.257
 251  9011.178
 252  9890.416
 253  7986.19
 254  7214.582
 255  7366.861
