# Input file       =  1209647534.116264_cleaned.dat
# Candidate        =  PSR_0332+5434
# Telescope        =  AR
# Epoch_topo       =  58244.550383290094
# Epoch_bary       =  N/A
# T_sample         =  0.002
# Data Folded      =  7340032
# Data Avg         =  0.0391074327539415
# Data StdDev      =  1.00009237008831 
# Profile Bins     =  512
# Profile Avg      =  560.640771717787 
# Profile StdDev   =  119.74409612791  
# Reduced chi-sqr  =  1.496
# Prob(Noise)      <  2.31e-12   (~6.9 sigma)
# P_topo (ms)      =  714.541989021144  +/- 0.000278
# P'_topo (s/s)    =  -0                +/- 1.47e-10
# P''_topo (s/s^2) =  0                 +/- 6.47e-14
# P_bary (ms)      =  N/A
# P'_bary (s/s)    =  N/A
# P''_bary (s/s^2) =  N/A
# P_orb (s)        =  N/A
# asin(i)/c (s)    =  N/A
# eccentricity     =  N/A
# w (rad)          =  N/A
# T_peri           =  N/A
######################################################
   0  448.4695
   1  439.9291
   2  474.5434
   3  523.8238
   4  491.8118
   5  443.7017
   6  509.5443
   7  454.8315
   8  456.7175
   9  618.1918
  10  649.8226
  11  674.0881
  12  582.705
  13  552.1331
  14  580.2729
  15  697.7608
  16  575.2068
  17  453.7854
  18  579.1818
  19  588.7691
  20  471.6408
  21  534.4817
  22  512.8984
  23  475.7705
  24  509.858
  25  533.1614
  26  505.4103
  27  538.7402
  28  612.1573
  29  604.7496
  30  575.717
  31  535.1058
  32  752.3456
  33  618.8973
  34  557.3794
  35  531.9115
  36  574.3041
  37  548.525
  38  472.2817
  39  473.9027
  40  568.6177
  41  505.6459
  42  485.9773
  43  501.5661
  44  470.4213
  45  392.4741
  46  549.3507
  47  599.3879
  48  510.25
  49  547.9047
  50  576.313
  51  489.5663
  52  518.51
  53  662.2664
  54  573.6682
  55  559.6911
  56  425.3037
  57  443.4372
  58  537.1261
  59  584.6299
  60  584.8577
  61  573.1088
  62  656.6907
  63  445.2692
  64  325.7019
  65  400.2198
  66  527.6157
  67  592.29
  68  572.9649
  69  606.2318
  70  639.3799
  71  651.2178
  72  688.3087
  73  514.0875
  74  597.5128
  75  633.1356
  76  525.5466
  77  643.3438
  78  621.3514
  79  534.9964
  80  650.0278
  81  638.2313
  82  512.9326
  83  487.6714
  84  443.7937
  85  400.5915
  86  424.1143
  87  432.1065
  88  510.5583
  89  536.8134
  90  505.3647
  91  468.2756
  92  499.393
  93  613.3849
  94  527.3975
  95  536.5909
  96  579.6945
  97  513.6719
  98  540.5095
  99  597.3939
 100  543.0709
 101  508.8047
 102  531.4774
 103  441.0878
 104  455.5106
 105  427.3853
 106  418.7751
 107  574.1908
 108  510.8389
 109  487.9194
 110  472.9537
 111  583.7211
 112  531.3152
 113  487.3002
 114  507.8629
 115  420.7375
 116  482.3001
 117  488.2909
 118  423.8527
 119  437.3241
 120  524.5552
 121  519.9329
 122  446.1466
 123  466.2062
 124  528.1929
 125  505.2382
 126  403.7978
 127  377.8263
 128  363.6889
 129  424.229
 130  561.7609
 131  496.0409
 132  444.6227
 133  504.6186
 134  577.8115
 135  548.0234
 136  488.5505
 137  475.9595
 138  577.1528
 139  531.3434
 140  532.7516
 141  700.1888
 142  788.1035
 143  676.4229
 144  595.6221
 145  711.9433
 146  662.202
 147  582.803
 148  529.8071
 149  499.1424
 150  548.0103
 151  554.6443
 152  542.0107
 153  453.6664
 154  560.4772
 155  602.0062
 156  584.7607
 157  529.1456
 158  393.4517
 159  512.9699
 160  545.669
 161  587.671
 162  620.8453
 163  503.4095
 164  682.394
 165  659.7971
 166  522.6339
 167  453.4215
 168  559.3604
 169  599.1816
 170  587.7184
 171  716.5164
 172  616.35
 173  645.9133
 174  599.5167
 175  652.0975
 176  596.5735
 177  588.7812
 178  714.0712
 179  608.4766
 180  507.975
 181  564.7552
 182  517.5112
 183  471.1094
 184  516.2431
 185  569.3949
 186  619.3861
 187  638.5595
 188  655.3838
 189  576.4527
 190  591.3109
 191  555.0588
 192  622.2592
 193  662.4647
 194  568.3759
 195  544.725
 196  541.8938
 197  642.6406
 198  525.8068
 199  573.2495
 200  606.5259
 201  645.439
 202  629.9886
 203  628.3628
 204  647.0192
 205  619.7479
 206  546.5597
 207  599.4362
 208  589.7787
 209  528.7143
 210  426.0931
 211  426.5186
 212  493.5684
 213  563.8149
 214  549.8219
 215  437.0368
 216  459.1994
 217  548.3742
 218  472.6091
 219  517.4935
 220  361.4264
 221  381.6811
 222  402.4644
 223  592.3392
 224  607.8732
 225  567.15
 226  490.3564
 227  563.2931
 228  563.8801
 229  415.5035
 230  420.5582
 231  526.0681
 232  501.4701
 233  437.667
 234  478.2868
 235  520.4316
 236  547.6636
 237  524.749
 238  470.9962
 239  500.7133
 240  521.9803
 241  430.1468
 242  498.1277
 243  482.3511
 244  442.9605
 245  551.7739
 246  602.2635
 247  522.5237
 248  417.0103
 249  407.3533
 250  265.5953
 251  459.6481
 252  648.0581
 253  695.9323
 254  648.2322
 255  584.2848
 256  600.7628
 257  623.8439
 258  548.067
 259  565.6564
 260  656.4331
 261  492.7885
 262  395.5432
 263  450.8505
 264  532.1246
 265  520.0553
 266  442.4633
 267  479.4368
 268  548.9838
 269  546.4669
 270  521.5938
 271  565.9193
 272  571.1436
 273  524.2579
 274  405.7635
 275  428.2082
 276  410.2253
 277  434.688
 278  467.1249
 279  422.0457
 280  481.863
 281  573.9354
 282  512.2488
 283  424.2766
 284  460.9502
 285  403.0752
 286  484.7608
 287  483.2875
 288  563.5132
 289  569.7349
 290  499.7997
 291  552.7162
 292  556.1021
 293  626.4255
 294  464.0901
 295  434.5646
 296  461.0027
 297  444.1542
 298  528.4275
 299  462.869
 300  436.6115
 301  465.7851
 302  488.5785
 303  400.1819
 304  460.0879
 305  448.838
 306  390.2252
 307  376.4468
 308  468.2898
 309  451.4424
 310  605.5016
 311  567.3676
 312  585.8215
 313  474.5512
 314  532.3528
 315  598.0484
 316  585.8268
 317  577.6086
 318  589.041
 319  604.0475
 320  571.438
 321  604.6683
 322  702.8257
 323  722.1616
 324  716.5814
 325  668.6638
 326  694.507
 327  608.8067
 328  450.428
 329  520.0138
 330  533.8929
 331  509.4424
 332  501.4765
 333  569.969
 334  596.6246
 335  636.5069
 336  652.1478
 337  582.658
 338  642.1743
 339  604.1503
 340  685.644
 341  601.7766
 342  618.9434
 343  640.4095
 344  648.056
 345  583.5742
 346  648.5032
 347  784.3232
 348  766.3432
 349  643.4138
 350  755.7206
 351  676.7224
 352  726.8806
 353  707.8294
 354  714.2375
 355  633.6343
 356  632.5329
 357  595.295
 358  683.2427
 359  763.5211
 360  786.7397
 361  774.6989
 362  712.0742
 363  650.8185
 364  559.9797
 365  557.7025
 366  667.0649
 367  653.1457
 368  656.0855
 369  585.7151
 370  593.5777
 371  591.6339
 372  648.2959
 373  599.8084
 374  572.8121
 375  587.6091
 376  541.4407
 377  521.1884
 378  499.5278
 379  562.5402
 380  561.1902
 381  669.6623
 382  564.7163
 383  561.5457
 384  598.0732
 385  563.767
 386  528.5624
 387  477.2927
 388  526.1595
 389  605.799
 390  607.4199
 391  550.0993
 392  450.6485
 393  467.5299
 394  480.5452
 395  599.7056
 396  701.6603
 397  713.6835
 398  522.1412
 399  607.3643
 400  770.0906
 401  751.2777
 402  816.9715
 403  782.2618
 404  877.5795
 405  977.3032
 406  1164.894
 407  1377.393
 408  1177.144
 409  947.9528
 410  741.6628
 411  628.8385
 412  549.4009
 413  600.723
 414  632.0012
 415  711.4479
 416  645.9825
 417  585.6609
 418  679.7355
 419  530.095
 420  472.4911
 421  554.314
 422  490.9903
 423  463.6502
 424  535.5775
 425  532.6457
 426  574.3166
 427  573.1068
 428  572.8405
 429  593.2952
 430  628.7272
 431  615.9182
 432  663.1179
 433  650.7214
 434  606.3196
 435  590.9413
 436  587.0898
 437  505.3903
 438  557.4918
 439  663.2471
 440  660.8804
 441  659.2123
 442  713.4454
 443  779.9808
 444  651.1952
 445  618.4056
 446  567.7363
 447  534.3971
 448  531.4039
 449  618.8383
 450  679.414
 451  746.9216
 452  549.7693
 453  608.9933
 454  642.9852
 455  609.9493
 456  576.9955
 457  664.7808
 458  553.6104
 459  543.9086
 460  585.7546
 461  573.4516
 462  556.3521
 463  584.0388
 464  590.2386
 465  514.4711
 466  549.5684
 467  569.4514
 468  562.8854
 469  444.2232
 470  500.6561
 471  584.2491
 472  631.0341
 473  510.3896
 474  396.7725
 475  423.2802
 476  563.0834
 477  555.364
 478  488.219
 479  428.746
 480  575.985
 481  700.4914
 482  643.415
 483  689.8354
 484  699.6921
 485  541.334
 486  418.928
 487  458.9423
 488  457.4558
 489  537.4563
 490  479.8898
 491  482.4702
 492  415.4206
 493  438.8309
 494  503.0994
 495  510.4395
 496  447.3097
 497  402.9141
 498  494.8789
 499  588.5797
 500  659.9103
 501  673.9945
 502  610.6028
 503  674.3997
 504  526.8431
 505  460.6931
 506  495.6926
 507  620.9494
 508  565.0592
 509  519.3219
 510  611.5729
 511  543.9429
