# Input file       =  1209044432.11521_cleaned.dat
# Candidate        =  PSR_0332+5434
# Telescope        =  AR
# Epoch_topo       =  58237.570036055673
# Epoch_bary       =  N/A
# T_sample         =  0.002
# Data Folded      =  7340032
# Data Avg         =  0.243785571604218
# Data StdDev      =  5.64974283745113 
# Profile Bins     =  1024
# Profile Avg      =  1747.50148746613 
# Profile StdDev   =  478.330064619652 
# Reduced chi-sqr  =  0.729
# Prob(Noise)      <  1   (~0.0 sigma)
# P_topo (ms)      =  714.548343836992  +/- 0.00032
# P'_topo (s/s)    =  -0                +/- 1.69e-10
# P''_topo (s/s^2) =  0                 +/- 7.44e-14
# P_bary (ms)      =  N/A
# P'_bary (s/s)    =  N/A
# P''_bary (s/s^2) =  N/A
# P_orb (s)        =  N/A
# asin(i)/c (s)    =  N/A
# eccentricity     =  N/A
# w (rad)          =  N/A
# T_peri           =  N/A
######################################################
   0  1812.651
   1  1994.995
   2  1982.443
   3  1896.055
   4  1956.901
   5  1959.848
   6  2102.264
   7  2140.111
   8  2065.642
   9  1996.908
  10  1825.868
  11  1708.766
  12  1691.646
  13  1705.299
  14  1952.546
  15  2083.338
  16  2155.22
  17  2094.049
  18  1987.81
  19  1999.36
  20  2062.35
  21  2050.404
  22  1905.159
  23  1799.453
  24  1742.326
  25  1778.601
  26  1842.274
  27  1967.279
  28  2030.946
  29  1852.096
  30  1908.207
  31  1925.591
  32  1920.4
  33  1819.741
  34  1733.456
  35  1809.67
  36  1770.026
  37  1688.182
  38  1726.886
  39  1743.911
  40  1611.33
  41  1424.304
  42  1364.192
  43  1441.045
  44  1570.377
  45  1634.274
  46  1697.261
  47  1555.026
  48  1421.271
  49  1409.118
  50  1316.954
  51  1266.7
  52  1251.717
  53  1367.713
  54  1427.407
  55  1386.585
  56  1441.223
  57  1555.184
  58  1595.035
  59  1549.854
  60  1431.817
  61  1403.287
  62  1380.167
  63  1410.147
  64  1487.744
  65  1573.664
  66  1584.901
  67  1578.549
  68  1565.425
  69  1587.793
  70  1601.628
  71  1503.668
  72  1466.982
  73  1509.009
  74  1514.94
  75  1473.643
  76  1376.16
  77  1465.999
  78  1539.767
  79  1670.638
  80  1615.07
  81  1588.604
  82  1595.691
  83  1735.122
  84  1814.082
  85  1766.885
  86  1671.704
  87  1769.818
  88  1879.722
  89  1879.488
  90  1740.623
  91  1634.802
  92  1669.718
  93  1734.212
  94  1874.783
  95  1974.81
  96  1777.561
  97  1729.661
  98  1811.826
  99  1954.437
 100  1873.936
 101  1888.222
 102  1967.413
 103  1916.237
 104  1876.741
 105  1849.277
 106  1876.884
 107  1872.589
 108  1776.827
 109  2004.644
 110  2008.57
 111  2110.514
 112  1886.011
 113  1773.894
 114  1777.256
 115  1860.592
 116  1977.526
 117  1981.502
 118  1928.903
 119  1911.197
 120  1905.423
 121  1875.007
 122  1926.457
 123  1919.822
 124  2062.267
 125  2103.651
 126  2045.101
 127  2122.676
 128  2138.641
 129  2199.005
 130  2068.712
 131  2023.351
 132  1912.03
 133  1900.476
 134  1925.078
 135  2189.983
 136  2309.021
 137  2364.691
 138  2152.457
 139  2093.349
 140  2040.764
 141  2002.591
 142  1983.349
 143  2124.69
 144  2090.586
 145  2233.472
 146  2316.822
 147  2389.519
 148  2141.784
 149  2027.724
 150  2006.076
 151  2146.52
 152  2094.946
 153  2049.906
 154  1992.832
 155  1976.649
 156  2013.559
 157  1900.74
 158  1819.197
 159  1710.433
 160  1674.448
 161  1677.108
 162  1693.301
 163  1797.251
 164  1762.317
 165  1704.014
 166  1599.358
 167  1787.658
 168  1843.732
 169  1992.386
 170  2025.062
 171  2005.843
 172  1932.251
 173  1928.76
 174  1933.264
 175  1926.168
 176  1745.604
 177  1676.705
 178  1739.364
 179  1886.143
 180  1965.888
 181  1926.507
 182  1865.95
 183  1755.704
 184  1780.666
 185  1824.205
 186  1898.195
 187  1811.812
 188  1781.314
 189  1801.831
 190  1845.114
 191  1895.016
 192  1910.005
 193  1934.924
 194  1983.689
 195  2031.034
 196  1921.891
 197  1968.907
 198  1838.391
 199  1923.236
 200  1895.438
 201  1833.663
 202  1641.032
 203  1512.286
 204  1489.214
 205  1569.595
 206  1552.199
 207  1737.641
 208  1743.017
 209  1628.473
 210  1517.879
 211  1529.728
 212  1677.1
 213  1730.392
 214  1634.499
 215  1548.364
 216  1526.891
 217  1566.885
 218  1604.773
 219  1521.784
 220  1538.483
 221  1586.993
 222  1524.187
 223  1539.989
 224  1629.056
 225  1630.532
 226  1633.312
 227  1615.069
 228  1727.342
 229  1661.08
 230  1569.992
 231  1616.166
 232  1701.475
 233  1751.942
 234  1690.025
 235  1643.966
 236  1687.392
 237  1722.7
 238  1735.866
 239  1709.079
 240  1576.748
 241  1545.508
 242  1433.512
 243  1556.903
 244  1559.969
 245  1691.173
 246  1803.948
 247  1743.31
 248  1639.826
 249  1603.298
 250  1769.501
 251  1913.649
 252  1905.615
 253  1942.969
 254  1938.195
 255  1909.38
 256  1788.93
 257  1835.727
 258  1897.334
 259  1908.743
 260  2001.439
 261  2155.97
 262  2301.231
 263  2218.47
 264  2078.918
 265  2027.151
 266  1946.2
 267  1985.271
 268  2038.882
 269  2100.487
 270  2081.948
 271  2048.577
 272  2034.907
 273  1949.595
 274  1865.214
 275  1902.346
 276  1983.657
 277  1975.051
 278  1917.159
 279  1793.799
 280  1810.59
 281  1843.583
 282  1972.961
 283  1955.22
 284  1880.854
 285  1879.428
 286  1914.634
 287  1957.277
 288  2015.542
 289  2046.121
 290  2085.366
 291  1913.807
 292  1774.809
 293  1633.464
 294  1657.968
 295  1709.482
 296  1774.449
 297  1765.959
 298  1705.679
 299  1698.816
 300  1683.247
 301  1651.607
 302  1579.519
 303  1609.155
 304  1659.645
 305  1600.882
 306  1646.066
 307  1606.811
 308  1581.003
 309  1589.827
 310  1655.894
 311  1685.613
 312  1781.629
 313  1739.173
 314  1831.444
 315  1949.542
 316  1982.997
 317  1869.934
 318  1788.484
 319  1736.847
 320  1737.254
 321  1746.635
 322  1858.406
 323  1955.311
 324  1896.885
 325  1885.151
 326  1735.932
 327  1674.08
 328  1720.416
 329  1829.425
 330  1909.293
 331  1743.827
 332  1641.112
 333  1526.712
 334  1619.198
 335  1570.877
 336  1546.745
 337  1680.649
 338  1652.139
 339  1677.746
 340  1563.57
 341  1694.77
 342  1641.072
 343  1652.6
 344  1754.423
 345  1849.794
 346  1871.185
 347  1689.812
 348  1579.104
 349  1484.97
 350  1521.669
 351  1490.782
 352  1484.687
 353  1430.613
 354  1381.413
 355  1372.131
 356  1427.722
 357  1640.787
 358  1643.804
 359  1599.44
 360  1512.367
 361  1642.436
 362  1579.733
 363  1477.188
 364  1471.289
 365  1541.408
 366  1558.099
 367  1396.592
 368  1318.501
 369  1436.075
 370  1578.575
 371  1688.278
 372  1664.079
 373  1566.751
 374  1460.369
 375  1348.352
 376  1449.101
 377  1462.5
 378  1713.919
 379  1685.531
 380  1755.387
 381  1630.644
 382  1640.884
 383  1572.398
 384  1590.066
 385  1655.886
 386  1660.295
 387  1679.557
 388  1649.977
 389  1582.817
 390  1594.146
 391  1515.871
 392  1504.161
 393  1448.097
 394  1501.592
 395  1607.164
 396  1490.486
 397  1378.638
 398  1436.448
 399  1471.254
 400  1623.576
 401  1586.288
 402  1608.444
 403  1579.124
 404  1587.99
 405  1533.681
 406  1395.122
 407  1352.61
 408  1418.778
 409  1498.897
 410  1609.702
 411  1767.073
 412  1756.048
 413  1743.065
 414  1806.103
 415  1870.944
 416  1829.558
 417  1724.547
 418  1754.15
 419  1799.349
 420  1809.083
 421  1845.162
 422  1932.189
 423  1791.668
 424  1646.208
 425  1601.514
 426  1669.671
 427  1657.692
 428  1668.053
 429  1807.159
 430  1839.102
 431  1925.622
 432  2013.991
 433  2109.32
 434  2028.66
 435  2035.346
 436  2030.321
 437  1934.723
 438  1876.339
 439  1894.554
 440  1882.987
 441  1760.563
 442  1712.265
 443  1688.057
 444  1741.373
 445  1766.618
 446  1762.786
 447  1809.954
 448  1848.674
 449  1765.411
 450  1765.056
 451  1848.818
 452  1952.248
 453  1892.56
 454  1874.475
 455  1749.603
 456  1632.879
 457  1581.071
 458  1521.885
 459  1559.575
 460  1678.504
 461  1698.541
 462  1554.267
 463  1499.379
 464  1453.161
 465  1545.939
 466  1441.34
 467  1404.822
 468  1480.056
 469  1564.488
 470  1618.935
 471  1479.448
 472  1428.568
 473  1266.584
 474  1304.698
 475  1402.867
 476  1414.055
 477  1338.751
 478  1268.397
 479  1301.958
 480  1269.394
 481  1288.16
 482  1337.073
 483  1396.639
 484  1479.403
 485  1523.986
 486  1419.648
 487  1321.665
 488  1368.214
 489  1426.448
 490  1411.938
 491  1272.076
 492  1296.909
 493  1406
 494  1433.956
 495  1463.662
 496  1580.624
 497  1644.578
 498  1654.7
 499  1498.522
 500  1486.176
 501  1450.159
 502  1581.734
 503  1720.5
 504  1699.692
 505  1628.769
 506  1623.116
 507  1734.602
 508  1714.312
 509  1554.755
 510  1409.675
 511  1416.845
 512  1495.273
 513  1544.658
 514  1475.104
 515  1523.518
 516  1594.645
 517  1633.656
 518  1683.663
 519  1705.235
 520  1719.757
 521  1616.392
 522  1589.097
 523  1531.38
 524  1582.34
 525  1418.675
 526  1349.89
 527  1336.823
 528  1469.052
 529  1512.615
 530  1590.666
 531  1566.922
 532  1556.8
 533  1576.553
 534  1575.173
 535  1529.828
 536  1466.411
 537  1399.747
 538  1452.78
 539  1476.688
 540  1455.888
 541  1478.078
 542  1582.158
 543  1686.007
 544  1672.146
 545  1564.682
 546  1688.355
 547  1726.404
 548  1776.377
 549  1786.55
 550  1750.523
 551  1795.516
 552  1711.49
 553  1833.004
 554  1856.187
 555  1784.312
 556  1727.041
 557  1779.971
 558  1794.924
 559  1783.064
 560  1807.435
 561  1878.828
 562  1851.091
 563  1989.642
 564  1983.902
 565  2030.408
 566  1950.938
 567  1999.483
 568  1982.689
 569  1958.648
 570  1928.393
 571  1952.008
 572  1909.842
 573  1890.805
 574  1911.831
 575  1890.516
 576  1916.377
 577  1888.124
 578  1764.375
 579  1635.74
 580  1653.413
 581  1659.477
 582  1693.565
 583  1636.762
 584  1703.903
 585  1703.455
 586  1842.113
 587  1977.291
 588  2031.204
 589  1953.38
 590  1928.961
 591  1896.599
 592  1805.877
 593  1744.449
 594  1876.108
 595  2103.461
 596  2245.406
 597  2480.125
 598  2559.157
 599  2764.059
 600  2815.947
 601  2915.836
 602  2834.871
 603  2878.611
 604  2794.04
 605  2589.282
 606  2322.863
 607  2055.425
 608  1785.897
 609  1442.178
 610  1351.504
 611  1326.525
 612  1423.591
 613  1516.129
 614  1652.063
 615  1584.97
 616  1634.236
 617  1597.023
 618  1689.935
 619  1689.783
 620  1799.762
 621  1810.662
 622  1751.704
 623  1693.044
 624  1765.846
 625  1838.297
 626  1786.683
 627  1754.461
 628  1686.365
 629  1802.05
 630  1847.814
 631  1934.556
 632  2031.633
 633  2008.771
 634  2138.585
 635  2114.101
 636  2094.98
 637  1908.542
 638  1844.902
 639  1718.12
 640  1589.118
 641  1511.012
 642  1456.382
 643  1515.806
 644  1481.576
 645  1508.965
 646  1621.647
 647  1548.215
 648  1497.997
 649  1441.491
 650  1454.008
 651  1607.969
 652  1518.892
 653  1538.382
 654  1485.583
 655  1490.343
 656  1493.068
 657  1513.743
 658  1543.25
 659  1502.197
 660  1468.574
 661  1512.721
 662  1573.322
 663  1660.782
 664  1771.532
 665  1692.212
 666  1635.437
 667  1581.8
 668  1540.184
 669  1528.149
 670  1643.943
 671  1734.256
 672  1812.472
 673  1870.268
 674  1881.045
 675  1855.905
 676  1846.675
 677  1793.312
 678  1880.634
 679  1807.737
 680  1732.196
 681  1651.846
 682  1728.625
 683  1750.812
 684  1777.092
 685  1768.954
 686  1749.734
 687  1848.174
 688  1878.267
 689  1843.753
 690  1616.463
 691  1566.527
 692  1674.178
 693  1616.598
 694  1645.307
 695  1561.657
 696  1487.866
 697  1495.84
 698  1576.884
 699  1679.459
 700  1744.122
 701  1720.361
 702  1736.324
 703  1669.882
 704  1632.279
 705  1683.377
 706  1791.801
 707  1839.481
 708  1853.969
 709  2002.899
 710  2175.33
 711  2201.33
 712  2051.214
 713  1878.304
 714  1886.177
 715  1837.623
 716  1817.209
 717  1889.503
 718  1963.974
 719  2014.282
 720  2017.551
 721  2026.055
 722  2034.44
 723  2054.601
 724  2016.843
 725  2049.549
 726  1979.447
 727  1972.21
 728  1954.058
 729  2029.385
 730  1902.376
 731  1927.259
 732  1830.896
 733  1827.387
 734  1871.877
 735  1911.428
 736  2129.877
 737  2222.3
 738  2126.5
 739  2094.365
 740  2179.532
 741  2253.747
 742  2012.823
 743  1797.552
 744  1765.077
 745  1851.325
 746  1838.793
 747  1987.753
 748  2138.53
 749  2083.344
 750  2044.092
 751  1981.616
 752  2012.481
 753  2045.542
 754  2017.07
 755  2059.511
 756  1984.046
 757  1910.513
 758  1830.129
 759  1754.641
 760  1730.09
 761  1846.178
 762  1767.913
 763  1798.947
 764  1902.194
 765  1958.286
 766  1992.446
 767  1892.019
 768  1813.639
 769  1763.663
 770  1848.95
 771  1838.297
 772  1776.525
 773  1631.065
 774  1616.773
 775  1608.601
 776  1502.427
 777  1575.861
 778  1637.596
 779  1546.267
 780  1309.516
 781  1258.939
 782  1425.532
 783  1593.372
 784  1655.115
 785  1587.305
 786  1480.465
 787  1448.368
 788  1463.473
 789  1488.531
 790  1563.197
 791  1582.322
 792  1449.011
 793  1345.827
 794  1258.332
 795  1361.688
 796  1480.005
 797  1648.4
 798  1542.361
 799  1385.297
 800  1314.629
 801  1440.01
 802  1628.493
 803  1676.265
 804  1625.566
 805  1718.245
 806  1664.655
 807  1774.584
 808  1655.985
 809  1613.48
 810  1671.926
 811  1787.171
 812  1740.247
 813  1587.522
 814  1526.022
 815  1582.1
 816  1613.147
 817  1716.879
 818  1810.959
 819  1746.091
 820  1618.32
 821  1675.006
 822  1810.338
 823  1934.692
 824  1813.986
 825  1830.061
 826  1886.78
 827  1954.667
 828  1874.138
 829  1711.857
 830  1631.502
 831  1741.902
 832  1827.353
 833  1803.73
 834  1642.883
 835  1571.786
 836  1526.372
 837  1654.201
 838  1797.878
 839  1782.347
 840  1723.647
 841  1604.21
 842  1712.353
 843  1780.394
 844  1763.781
 845  1763.267
 846  1864.401
 847  2010.43
 848  1893.561
 849  1703.19
 850  1646.537
 851  1668.052
 852  1713.832
 853  1663.774
 854  1573.517
 855  1679.543
 856  1821.583
 857  1944.136
 858  1922.076
 859  1792.05
 860  1819.522
 861  1922.196
 862  1967.944
 863  1932.778
 864  1868.547
 865  1902.239
 866  2050.238
 867  2114.562
 868  2010.511
 869  1891.322
 870  1921.745
 871  1948.548
 872  1831.88
 873  1769.013
 874  1950.355
 875  2076.638
 876  2124.27
 877  2019.311
 878  2137.455
 879  2141.827
 880  2076.342
 881  1911.297
 882  1845.125
 883  1853.096
 884  1869.566
 885  1888.645
 886  1996.391
 887  2028.261
 888  2000.158
 889  1872.758
 890  1901.588
 891  1910.385
 892  1925.539
 893  1977.31
 894  1927.119
 895  1927.256
 896  1835.289
 897  1771.35
 898  1844.089
 899  1883.742
 900  2024.631
 901  1932.609
 902  1803.846
 903  1796.995
 904  1896.415
 905  1929.227
 906  1798.898
 907  1701.487
 908  1658.449
 909  1745.086
 910  1793.3
 911  1856.253
 912  1749.828
 913  1725.424
 914  1696.477
 915  1741.982
 916  1733.708
 917  1960.866
 918  1931.178
 919  1868.701
 920  1588.685
 921  1521.673
 922  1667.139
 923  1625.487
 924  1654.892
 925  1636.35
 926  1653.973
 927  1540.604
 928  1452.669
 929  1458.256
 930  1589.719
 931  1640.646
 932  1608.978
 933  1660.276
 934  1682.723
 935  1732.261
 936  1714.187
 937  1647.18
 938  1623.872
 939  1488.073
 940  1492.119
 941  1476.595
 942  1557.483
 943  1582.563
 944  1522.316
 945  1565.607
 946  1646.558
 947  1664.92
 948  1547.466
 949  1347.49
 950  1391.133
 951  1455.328
 952  1676.016
 953  1695.654
 954  1617.295
 955  1599.325
 956  1578.47
 957  1607.191
 958  1490.723
 959  1429.536
 960  1579.924
 961  1518.464
 962  1381.242
 963  1326.405
 964  1559.855
 965  1738.778
 966  1811.065
 967  1635.966
 968  1528.31
 969  1486.767
 970  1645.148
 971  1720.598
 972  1677.32
 973  1550.507
 974  1617.285
 975  1558.612
 976  1671.782
 977  1675.648
 978  1762.403
 979  1758.617
 980  1692.794
 981  1635.46
 982  1611.829
 983  1567.786
 984  1596.236
 985  1651.595
 986  1773.964
 987  1805.479
 988  1921.593
 989  2090.457
 990  2227.76
 991  2151.28
 992  1949.411
 993  1883.851
 994  1905.712
 995  1973.473
 996  1871.841
 997  1842.898
 998  1835.077
 999  1823.044
1000  1719.586
1001  1708.248
1002  1744.067
1003  1751.271
1004  1704.286
1005  1673.271
1006  1662.383
1007  1745.413
1008  1793.361
1009  1816.344
1010  1758.184
1011  1760.185
1012  1854.444
1013  1970.866
1014  1894.657
1015  1766.668
1016  1654.409
1017  1551.622
1018  1608.367
1019  1605.29
1020  1661.082
1021  1717.142
1022  1720.003
1023  1823.726
