# Input file       =  1209561351.137129_cleaned.dat
# Candidate        =  PSR_0332+5434
# Telescope        =  AR
# Epoch_topo       =  58243.552895105662
# Epoch_bary       =  N/A
# T_sample         =  0.002
# Data Folded      =  7340032
# Data Avg         =  0.356222966227506
# Data StdDev      =  5.79352516723894 
# Profile Bins     =  512
# Profile Avg      =  5106.24314642979 
# Profile StdDev   =  693.67635959873  
# Reduced chi-sqr  =  0.784
# Prob(Noise)      <  1   (~0.0 sigma)
# P_topo (ms)      =  714.542914918828  +/- 0.000846
# P'_topo (s/s)    =  -0                +/- 4.46e-10
# P''_topo (s/s^2) =  0                 +/- 1.97e-13
# P_bary (ms)      =  N/A
# P'_bary (s/s)    =  N/A
# P''_bary (s/s^2) =  N/A
# P_orb (s)        =  N/A
# asin(i)/c (s)    =  N/A
# eccentricity     =  N/A
# w (rad)          =  N/A
# T_peri           =  N/A
######################################################
   0  4850.271
   1  4500.328
   2  4646.441
   3  4799.772
   4  4674.185
   5  4527.929
   6  4739.746
   7  4571.649
   8  4922.046
   9  5035.336
  10  5134.887
  11  5321.212
  12  5188.659
  13  5109.863
  14  4748.09
  15  4617.093
  16  5088.46
  17  5267.97
  18  5519.157
  19  5341.666
  20  5067.514
  21  5209.235
  22  5110.244
  23  5148.214
  24  5157.04
  25  4897.059
  26  4461.47
  27  4650.939
  28  4924.276
  29  4858.8
  30  4614.638
  31  4854.041
  32  4984.115
  33  4696.57
  34  4719.5
  35  4818.413
  36  4765.674
  37  5132.789
  38  5166.985
  39  5240.086
  40  5004.372
  41  4809.814
  42  4863.13
  43  5041.538
  44  4896.521
  45  4956.407
  46  5216.423
  47  5427.671
  48  5334.742
  49  4860.426
  50  4881.421
  51  4935.74
  52  4870.511
  53  5208.614
  54  5697.282
  55  5356.556
  56  4894.104
  57  5139.275
  58  5454.41
  59  5524.65
  60  5116.814
  61  5228.637
  62  5291.112
  63  5336.014
  64  4969.317
  65  4728.892
  66  5127.149
  67  4835.107
  68  4856.607
  69  4941.195
  70  4884.59
  71  5208.779
  72  5080.134
  73  4522.413
  74  4308.05
  75  4486.758
  76  4895.831
  77  4717.7
  78  5007.625
  79  5009.275
  80  4759.465
  81  5003.779
  82  5302.532
  83  4960.479
  84  4675.286
  85  4980.324
  86  4972.421
  87  5181.105
  88  5351.929
  89  5139.248
  90  5036.378
  91  5018.812
  92  5032.885
  93  5002.773
  94  5305.689
  95  5202.475
  96  5084.641
  97  5204.136
  98  5360.978
  99  5260.965
 100  5067.009
 101  4993.401
 102  5141.252
 103  5317.196
 104  5754.424
 105  5432.955
 106  5515.235
 107  5364.915
 108  5468.496
 109  5496.789
 110  5366.098
 111  5566.125
 112  5835.562
 113  5842.106
 114  5506.885
 115  5807.324
 116  6166.435
 117  6094.384
 118  5736.539
 119  5539.784
 120  5583.286
 121  5120.165
 122  5479.998
 123  5592.172
 124  4988.878
 125  5461.528
 126  5350.567
 127  5837.974
 128  5491.664
 129  5159.359
 130  5285.011
 131  5160.296
 132  4711.292
 133  4983.069
 134  4940.646
 135  5082.184
 136  5234.201
 137  5075.13
 138  5248.62
 139  5235.166
 140  5294.741
 141  5061.785
 142  4791.446
 143  5236.298
 144  5330.828
 145  5556.948
 146  5261.285
 147  5333.328
 148  5193.345
 149  5141.151
 150  4976.389
 151  4859.981
 152  4988.824
 153  4811.182
 154  5037.833
 155  5351.331
 156  5001.315
 157  4958.314
 158  5032.106
 159  4818.045
 160  4972.711
 161  4963.093
 162  4816.543
 163  4990.366
 164  4720.058
 165  4802.71
 166  5088.432
 167  4972.707
 168  5140.895
 169  4649.333
 170  4774.718
 171  4607.904
 172  4790.103
 173  4984.517
 174  4982.905
 175  5029.865
 176  5391.476
 177  5221.723
 178  5068.371
 179  5010.039
 180  5245.917
 181  5041.912
 182  4959.467
 183  4773.678
 184  4815.539
 185  4554.826
 186  4631.425
 187  5308.934
 188  5189.337
 189  5244.028
 190  4908.989
 191  5037.973
 192  5353.12
 193  5153.409
 194  4900.53
 195  4535.222
 196  4702.955
 197  5327.638
 198  5440.202
 199  5030.205
 200  5001.186
 201  5294.239
 202  5362.089
 203  5411.705
 204  4971.702
 205  4864.42
 206  4887.401
 207  5154.59
 208  5244.767
 209  5187.797
 210  5561.42
 211  5477.07
 212  5313.387
 213  5144.214
 214  5428.886
 215  5557.82
 216  5500.581
 217  5872.371
 218  5872.755
 219  5511.689
 220  5504.547
 221  5494.072
 222  5487.096
 223  5359.819
 224  5280.917
 225  5438.65
 226  5686.346
 227  5515.955
 228  5535.668
 229  5161.122
 230  4991.674
 231  5398.87
 232  5442.235
 233  5478.095
 234  5306.06
 235  5257.194
 236  5079.519
 237  5164.419
 238  5290.209
 239  5425.932
 240  5615.034
 241  5454.026
 242  5033.327
 243  4935.068
 244  5078.471
 245  5078.154
 246  5209.867
 247  5378.274
 248  5796.772
 249  5521.063
 250  5318.965
 251  5359.927
 252  5445.698
 253  5426.847
 254  5393.457
 255  4986.866
 256  5146.217
 257  5182.428
 258  4984.012
 259  5041.297
 260  5292.639
 261  5537.635
 262  5255.093
 263  5628.321
 264  5628.023
 265  5441.224
 266  5398.967
 267  5184.929
 268  5440.224
 269  5260.167
 270  5198.094
 271  5311.9
 272  5149.271
 273  5019.712
 274  5171.298
 275  5360.702
 276  5399.475
 277  5237.611
 278  5175.934
 279  5301.194
 280  5058.92
 281  5411.615
 282  5475.773
 283  5229.097
 284  5289.642
 285  5366.933
 286  5424.425
 287  5571.184
 288  5702.922
 289  5569.057
 290  5425.272
 291  5315.995
 292  5281.223
 293  5570.935
 294  5735.628
 295  5811.159
 296  5848.846
 297  5914.046
 298  5781.214
 299  5436.807
 300  5318.725
 301  5230.143
 302  5380.801
 303  5378.415
 304  5287.639
 305  5086.828
 306  5027.867
 307  5736.199
 308  5774.021
 309  5451.222
 310  5386.517
 311  5668.186
 312  5844.256
 313  5745.077
 314  6216.548
 315  6849.271
 316  7158.501
 317  7073.546
 318  6866.805
 319  6509.978
 320  6245.31
 321  5880.192
 322  5282.312
 323  4801.472
 324  5127.854
 325  5482.078
 326  5163.124
 327  5343.753
 328  5357.625
 329  5233.521
 330  5676.301
 331  5672.155
 332  5557.744
 333  5797.787
 334  5425.166
 335  5317.255
 336  5275.295
 337  5230.708
 338  5283.267
 339  5283.959
 340  5258.359
 341  5298.472
 342  5060.745
 343  4942.274
 344  5028.233
 345  5222.301
 346  5124.317
 347  5052.065
 348  4762.448
 349  4644.337
 350  4457.165
 351  4462.995
 352  4570.75
 353  4571.853
 354  4479.711
 355  4473.166
 356  4265.679
 357  3959.679
 358  3939.681
 359  4102.559
 360  4053.524
 361  4103.598
 362  4225.336
 363  4564.262
 364  4371.89
 365  4123.074
 366  4219.865
 367  4227.838
 368  3921.575
 369  4406.088
 370  4416.74
 371  4426.613
 372  4274.521
 373  4467.385
 374  4038.081
 375  4070.034
 376  4462.871
 377  4069.526
 378  3924.689
 379  3963.707
 380  4005.325
 381  3954.709
 382  4226.652
 383  4026.887
 384  3864.907
 385  4143.958
 386  4106.119
 387  4438.581
 388  4538.046
 389  4711.866
 390  4940.876
 391  4938.364
 392  4739.657
 393  4539.127
 394  4408.177
 395  4597.902
 396  4865.585
 397  4625.807
 398  4598.866
 399  4329.061
 400  4634.28
 401  4964.802
 402  4955.945
 403  5080.581
 404  5257.539
 405  5266.269
 406  4982.871
 407  5071.552
 408  5094.979
 409  5424.809
 410  5327.057
 411  4955.858
 412  5144.716
 413  5177.591
 414  5046.733
 415  5163.761
 416  5101.207
 417  5320.334
 418  5507.279
 419  5601.271
 420  5749.821
 421  5714.893
 422  5815.004
 423  5805.937
 424  6017.072
 425  6119.435
 426  5980.771
 427  5334.932
 428  5196.696
 429  5061.826
 430  5232.814
 431  5327.5
 432  4918.871
 433  5039.792
 434  4843.754
 435  4952.901
 436  4735.403
 437  4595.302
 438  4703.755
 439  4887.667
 440  4560.523
 441  4210.26
 442  4639.071
 443  4323.595
 444  4443.336
 445  4770.114
 446  4598.544
 447  4792.042
 448  5203.697
 449  5396.814
 450  5037.831
 451  5015.302
 452  4974.192
 453  4895.326
 454  5059.263
 455  5195.116
 456  5525.34
 457  5301.345
 458  5279.977
 459  5368.083
 460  5531.145
 461  5280.873
 462  5014.293
 463  5393.083
 464  5278.893
 465  5103.463
 466  5182.965
 467  5042.454
 468  5260.334
 469  5202.674
 470  4933.353
 471  4845.982
 472  5207.547
 473  5101.966
 474  5247.421
 475  4878.034
 476  4960.092
 477  4791.477
 478  4437.281
 479  5217.16
 480  5323.809
 481  5095.773
 482  4875.462
 483  5272.215
 484  5076.776
 485  5120.091
 486  5077.871
 487  5032.016
 488  4719.7
 489  4495.584
 490  4949.024
 491  5213.154
 492  5089.748
 493  4861.738
 494  4881.915
 495  4778.089
 496  4585.435
 497  4920.803
 498  5308.363
 499  4896.455
 500  4715.242
 501  5149.154
 502  5074.183
 503  5241.939
 504  5129.216
 505  5010.064
 506  5059.485
 507  5124.907
 508  4954.215
 509  4813.085
 510  4748.105
 511  5187.13
