# Input file       =  1209014843.115618_cleaned.dat
# Candidate        =  PSR_0332+5434
# Telescope        =  AR
# Epoch_topo       =  58237.227570782612
# Epoch_bary       =  N/A
# T_sample         =  0.002
# Data Folded      =  7208960
# Data Avg         =  0.265631577138662
# Data StdDev      =  5.68260591930723 
# Profile Bins     =  256
# Profile Avg      =  7479.99681733385 
# Profile StdDev   =  953.59477901336  
# Reduced chi-sqr  =  1.352
# Prob(Noise)      <  0.000153   (~3.6 sigma)
# P_topo (ms)      =  714.548301939319  +/- 3.6e-05
# P'_topo (s/s)    =  -0                +/- 1.93e-11
# P''_topo (s/s^2) =  0                 +/- 8.68e-15
# P_bary (ms)      =  N/A
# P'_bary (s/s)    =  N/A
# P''_bary (s/s^2) =  N/A
# P_orb (s)        =  N/A
# asin(i)/c (s)    =  N/A
# eccentricity     =  N/A
# w (rad)          =  N/A
# T_peri           =  N/A
######################################################
   0  6397.652
   1  5318.508
   2  6855.032
   3  8175.464
   4  8419.327
   5  5854.524
   6  5976.554
   7  7084.309
   8  8979.4
   9  7152.48
  10  8092.256
  11  7353.879
  12  8729.317
  13  7224.946
  14  8395.578
  15  8675.697
  16  8307.152
  17  7032.602
  18  7658.087
  19  8984.423
  20  9599.593
  21  7209.37
  22  7240.129
  23  8654.598
  24  8500.851
  25  7687.152
  26  6662.472
  27  7766.521
  28  8804.372
  29  7519.275
  30  7475.511
  31  7948.576
  32  8203.112
  33  7378.014
  34  7198.678
  35  9273.659
  36  9214.794
  37  8683.932
  38  6291.281
  39  7718.538
  40  7624.52
  41  8506.89
  42  6524.195
  43  6712.605
  44  7981.897
  45  8723.232
  46  5868.04
  47  6449.809
  48  6732.183
  49  7730.398
  50  6817.987
  51  6992.443
  52  7461.267
  53  7674.143
  54  6038.447
  55  5930.552
  56  6865.602
  57  7871.292
  58  6870.985
  59  6074.338
  60  7480.957
  61  8114.259
  62  6858.779
  63  5674.155
  64  7068.208
  65  6451.949
  66  6960.748
  67  6275.171
  68  6827.783
  69  6733.776
  70  6872.885
  71  5694.945
  72  7094.453
  73  7721.463
  74  8257.213
  75  6049.564
  76  7483.899
  77  7942.242
  78  8206.365
  79  6259.188
  80  6875.393
  81  6955.292
  82  7693.195
  83  7407.302
  84  7519.312
  85  7954.527
  86  9801.706
  87  6739.584
  88  6377.333
  89  7853.203
  90  8714.305
  91  7171.643
  92  6288.71
  93  7531.12
  94  8784.309
  95  7599.853
  96  6160.616
  97  6958.608
  98  7350.374
  99  7815.712
 100  6598.642
 101  6953.126
 102  7543.102
 103  7171.836
 104  6635.042
 105  7438.364
 106  7203.756
 107  7551.807
 108  6478.626
 109  6976.648
 110  7763.263
 111  7682.778
 112  5428.598
 113  6437.73
 114  6761.798
 115  7926.252
 116  6066.05
 117  6179.555
 118  7297.671
 119  8563.499
 120  6494.824
 121  6870.336
 122  7161.017
 123  7390.32
 124  7150.473
 125  7027.295
 126  7068.35
 127  8331.303
 128  8160.739
 129  6060.769
 130  7227.355
 131  8128.481
 132  8326.372
 133  6098.449
 134  7605.196
 135  8312.153
 136  8905.875
 137  7367.855
 138  7485.623
 139  7274.148
 140  7570.061
 141  6999.265
 142  8236.928
 143  8780.524
 144  7827.081
 145  7665.318
 146  7493.312
 147  8426.682
 148  9605.387
 149  9277.576
 150  10836.1
 151  10802.78
 152  9982.716
 153  7915.035
 154  7026.969
 155  8060.683
 156  8614.861
 157  7425.4
 158  7141.249
 159  7749.271
 160  8108.7
 161  7408.021
 162  6062.542
 163  7766.775
 164  7469.374
 165  7568.084
 166  5945.202
 167  7375.862
 168  8131.347
 169  7662.542
 170  5655.399
 171  6255.708
 172  7469.768
 173  7892.412
 174  6968.642
 175  7813.973
 176  7527.144
 177  8365.962
 178  7114.578
 179  7024.229
 180  7222.335
 181  9124.3
 182  7207.464
 183  6852.867
 184  7533.642
 185  8976.179
 186  6944.481
 187  6603.912
 188  7386.307
 189  7946.156
 190  7726.306
 191  6382.993
 192  7013.89
 193  7934.109
 194  7747.985
 195  7034.537
 196  7684.634
 197  7816.913
 198  7528.011
 199  6694.276
 200  8616.492
 201  8725.903
 202  8260.698
 203  6072.997
 204  7840.697
 205  7497.939
 206  8642.72
 207  6216.24
 208  6219.799
 209  7686.584
 210  8223.457
 211  5623.733
 212  7300.518
 213  7888.444
 214  7970.424
 215  6146.042
 216  7389.229
 217  8348.31
 218  8829.665
 219  8130.319
 220  7194.678
 221  7405.316
 222  9618.333
 223  9399.062
 224  7541.782
 225  7995.025
 226  8864.238
 227  9302.986
 228  7798.106
 229  7965.545
 230  7785.556
 231  8166.497
 232  6489.878
 233  8466.143
 234  8607.071
 235  7946.529
 236  6556.06
 237  7669.309
 238  7116.5
 239  7824.379
 240  6251.044
 241  7755.158
 242  8680.183
 243  8057.711
 244  6354.333
 245  6550.924
 246  6849.8
 247  7067.544
 248  5825.839
 249  6514.443
 250  7859.32
 251  8145.549
 252  5755.073
 253  5268.097
 254  7234.042
 255  7148.541
