# Input file       =  1209906091.119043_cleaned.dat
# Candidate        =  PSR_0332+5434
# Telescope        =  AR
# Epoch_topo       =  58247.542941192631
# Epoch_bary       =  N/A
# T_sample         =  0.002
# Data Folded      =  7340032
# Data Avg         =  0.540255079189332
# Data StdDev      =  5.12179594316114 
# Profile Bins     =  512
# Profile Avg      =  7744.71081869997 
# Profile StdDev   =  613.248179976886 
# Reduced chi-sqr  =  1.561
# Prob(Noise)      <  6.16e-15   (~7.7 sigma)
# P_topo (ms)      =  714.539176677     +/- 0.00101
# P'_topo (s/s)    =  -0                +/- 5.31e-10
# P''_topo (s/s^2) =  0                 +/- 2.34e-13
# P_bary (ms)      =  N/A
# P'_bary (s/s)    =  N/A
# P''_bary (s/s^2) =  N/A
# P_orb (s)        =  N/A
# asin(i)/c (s)    =  N/A
# eccentricity     =  N/A
# w (rad)          =  N/A
# T_peri           =  N/A
######################################################
   0  8611.202
   1  8716.81
   2  8388.465
   3  8821.902
   4  8652.861
   5  8679.706
   6  8492.094
   7  7901.628
   8  7993.191
   9  8018.831
  10  8243.614
  11  8193.459
  12  8006.494
  13  7835.479
  14  7822.735
  15  7997.121
  16  7979.074
  17  7680.813
  18  7852.39
  19  8094.397
  20  8082.507
  21  8007.011
  22  7814.068
  23  7693.691
  24  8078.551
  25  8224.792
  26  8186.592
  27  8311.195
  28  7858.199
  29  8113.823
  30  7869.255
  31  7770.212
  32  8032.337
  33  7932.502
  34  7935.892
  35  7962.308
  36  7852.922
  37  7527.006
  38  7509.962
  39  7828.044
  40  7814.538
  41  7850.297
  42  8231.383
  43  8137.04
  44  7999.168
  45  8018.152
  46  8330.644
  47  8435.646
  48  8354.739
  49  8208.562
  50  8167.561
  51  8198.69
  52  8213.184
  53  8560.993
  54  8724.114
  55  8380.655
  56  7892.183
  57  8029.089
  58  8499.292
  59  8620.092
  60  8377.751
  61  8557.669
  62  8725.911
  63  8822.745
  64  8961.02
  65  8521.75
  66  7851.864
  67  7891.562
  68  8474.129
  69  8706.268
  70  8484.963
  71  8394.452
  72  8515.314
  73  8357.485
  74  8330.657
  75  8628.515
  76  8494.435
  77  8330.478
  78  8358.26
  79  8359.244
  80  8493.506
  81  8676.712
  82  8830.635
  83  9054.696
  84  8761.493
  85  8887.276
  86  9310.355
  87  9467.298
  88  9039.835
  89  8646.585
  90  8799.024
  91  8698.132
  92  8705.046
  93  9296.407
  94  9066.593
  95  8640.703
  96  8512.817
  97  8570.936
  98  8737.941
  99  8842.965
 100  8736.886
 101  8685.617
 102  8877.273
 103  8839.121
 104  8625.405
 105  8569.885
 106  8574.73
 107  8676.188
 108  8775.604
 109  8794.271
 110  8964.972
 111  8843.852
 112  8782.518
 113  8338.652
 114  8250.115
 115  8662.988
 116  8685.036
 117  8560.642
 118  8448.568
 119  8618.997
 120  8625.459
 121  8511.066
 122  8004.413
 123  8201.422
 124  8301.967
 125  8499.316
 126  8549.394
 127  8580.513
 128  8426.274
 129  8328.533
 130  8400.281
 131  8401.043
 132  7944.876
 133  7807.256
 134  7932.15
 135  8191.103
 136  8232.019
 137  8252.363
 138  8242.311
 139  8106.268
 140  8094.822
 141  7888.395
 142  7966.689
 143  7935.48
 144  7964.711
 145  8090.62
 146  7570.303
 147  7855.261
 148  7829.271
 149  7772.358
 150  7897.601
 151  7482.336
 152  7873.88
 153  7855.149
 154  7622.051
 155  7472.694
 156  7542.187
 157  7582.125
 158  7565.117
 159  7805.429
 160  7818.33
 161  7707.646
 162  7801.076
 163  7751.552
 164  7684.851
 165  7663.349
 166  7865.731
 167  8100.436
 168  8017.965
 169  7804.628
 170  7673.778
 171  7497.957
 172  7946.334
 173  7594.409
 174  7349.109
 175  7353.36
 176  7492.172
 177  7577.095
 178  7553.972
 179  7494.798
 180  7288.121
 181  7597.874
 182  7464.697
 183  7333.27
 184  7606.944
 185  7723.792
 186  7796.351
 187  7268.854
 188  7081.118
 189  6670.784
 190  6932.899
 191  7379.769
 192  7316.472
 193  7193.17
 194  7033.764
 195  7129.207
 196  7276.39
 197  7249.739
 198  7265.531
 199  7090.689
 200  7229.417
 201  7272.365
 202  7274.503
 203  6946.278
 204  7123.82
 205  7555.461
 206  7633.294
 207  7701.989
 208  7546.318
 209  7590.384
 210  7206.323
 211  7357.099
 212  7505.81
 213  7313.406
 214  6968.04
 215  7129.763
 216  7092.003
 217  6557.993
 218  7011.701
 219  7139.263
 220  7150.927
 221  7021.19
 222  7059.997
 223  7064.349
 224  7150.654
 225  7296.139
 226  7522.546
 227  7434.157
 228  7511.684
 229  7109.44
 230  7273.858
 231  7104.298
 232  7120.316
 233  7482.926
 234  7627.54
 235  7732.353
 236  7568.061
 237  7114.404
 238  7154.648
 239  7311.919
 240  7563.881
 241  7466.576
 242  7442.248
 243  7524.852
 244  7668.407
 245  7609.741
 246  7610.629
 247  7662.718
 248  8009.183
 249  7798.339
 250  7756.428
 251  7601.018
 252  7572.489
 253  7925.323
 254  7272.925
 255  7182.287
 256  7263.989
 257  7203.889
 258  7372.165
 259  7219.412
 260  7168.444
 261  6845.69
 262  7003.977
 263  7194.68
 264  7029.913
 265  7209.188
 266  7269.97
 267  6838.716
 268  6835.087
 269  7143.541
 270  7330.116
 271  7217.177
 272  7214.999
 273  7389.24
 274  6886.539
 275  6856.889
 276  6883.313
 277  7059.597
 278  7315.106
 279  7240.163
 280  7105.188
 281  7304.379
 282  7109.035
 283  7201.451
 284  7181.102
 285  7157.363
 286  6606.569
 287  6460.795
 288  6992.572
 289  7139.248
 290  6876.884
 291  6958.854
 292  6852.56
 293  7265.1
 294  7197.555
 295  7246.576
 296  7326.818
 297  7941.031
 298  8305.416
 299  9161.828
 300  9597.308
 301  9227.885
 302  8780.256
 303  7907.006
 304  7295.874
 305  7314.859
 306  7281.147
 307  7495.257
 308  7714.858
 309  7641.513
 310  7134.741
 311  7023.792
 312  7166.467
 313  7276.053
 314  7106.387
 315  7461.3
 316  7304.935
 317  7046.113
 318  6986.424
 319  7204.553
 320  7370.757
 321  6892.77
 322  6852.665
 323  7155.877
 324  7164.083
 325  7111.521
 326  7248.358
 327  7617.636
 328  7623.092
 329  7686.202
 330  7312.119
 331  7384.691
 332  7276.318
 333  6997.933
 334  6806.328
 335  7133.48
 336  6901.083
 337  6931.745
 338  7244.033
 339  7163.51
 340  7179.816
 341  7369.102
 342  7434.011
 343  7377.311
 344  7186.805
 345  6762.31
 346  7208.579
 347  7594.588
 348  7732.113
 349  7670.495
 350  7777.543
 351  7828.222
 352  7514.96
 353  7540.368
 354  7443.36
 355  7271.559
 356  7430.62
 357  7509.265
 358  7542.92
 359  7617.422
 360  7958.407
 361  7531.469
 362  7197.294
 363  7510.136
 364  7692.274
 365  7789.177
 366  7408.118
 367  7359.271
 368  7289.848
 369  7197.833
 370  7311.354
 371  7341.833
 372  7111.416
 373  7317.359
 374  7418.321
 375  7631.637
 376  7725.258
 377  7477.136
 378  7228.632
 379  7025.155
 380  7478.838
 381  7801.571
 382  7817.29
 383  7603.109
 384  7334.73
 385  7026.686
 386  7192.835
 387  7115.932
 388  7168.867
 389  7585.776
 390  7447.609
 391  7266.645
 392  7145.712
 393  7111.958
 394  7167.581
 395  7581.992
 396  7541.51
 397  7460.513
 398  7243.361
 399  6968.44
 400  7090.256
 401  6868.559
 402  6881.09
 403  6981.883
 404  6991.715
 405  7526.956
 406  6831.526
 407  6951.471
 408  7145.977
 409  7268.366
 410  7637.162
 411  7504.879
 412  7472.109
 413  7649.13
 414  7370.973
 415  7403.171
 416  7726.971
 417  7737.192
 418  7784.899
 419  7663.445
 420  7803.608
 421  7703.269
 422  7981.126
 423  7749.401
 424  7524.787
 425  7696.679
 426  8090.938
 427  8210.539
 428  8265.699
 429  8059.43
 430  8338.854
 431  8215.938
 432  7873.063
 433  7652.118
 434  7735.145
 435  7653.328
 436  7564.223
 437  7823.406
 438  7562.661
 439  7431.772
 440  7562.37
 441  7262.175
 442  7373.649
 443  7433.686
 444  7387.453
 445  7486.773
 446  7602.625
 447  7514.937
 448  7402.689
 449  7588.931
 450  7634.329
 451  7367.752
 452  7489.773
 453  7838.89
 454  7847.035
 455  7819.887
 456  7796.355
 457  7927.383
 458  7521.214
 459  7282.302
 460  7688.78
 461  7783.292
 462  7683.531
 463  7611.732
 464  7630.231
 465  7728.802
 466  8063.72
 467  7821.651
 468  7705.87
 469  7809.313
 470  7910.275
 471  7994.194
 472  8013.196
 473  8190.669
 474  7835.601
 475  7434.223
 476  7538.375
 477  7834.269
 478  8437.666
 479  8237.885
 480  7934.874
 481  7985.34
 482  7974.14
 483  7956.796
 484  8019.718
 485  7850.254
 486  7908.44
 487  7926.12
 488  7894.698
 489  7910.441
 490  7875.557
 491  8160.515
 492  8198.898
 493  7776.716
 494  7872.328
 495  7730.07
 496  7796.481
 497  7878.797
 498  8175.24
 499  8119.265
 500  7887.819
 501  7798.21
 502  8043.268
 503  7934.377
 504  7827.806
 505  8369.556
 506  8150.756
 507  8328.184
 508  8387.725
 509  8133.261
 510  8434.795
 511  8716.917
