# Input file       =  1209288028.114244_cleaned.dat
# Candidate        =  PSR_0332+5434
# Telescope        =  AR
# Epoch_topo       =  58240.389434192635
# Epoch_bary       =  N/A
# T_sample         =  0.002
# Data Folded      =  7340032
# Data Avg         =  0.0940387956507023
# Data StdDev      =  6.53016412162228 
# Profile Bins     =  512
# Profile Avg      =  1348.54093063382 
# Profile StdDev   =  781.876378320454 
# Reduced chi-sqr  =  1.008
# Prob(Noise)      <  0.438   (~0.2 sigma)
# P_topo (ms)      =  714.545480853524  +/- 0.000624
# P'_topo (s/s)    =  -0                +/- 3.29e-10
# P''_topo (s/s^2) =  0                 +/- 1.45e-13
# P_bary (ms)      =  N/A
# P'_bary (s/s)    =  N/A
# P''_bary (s/s^2) =  N/A
# P_orb (s)        =  N/A
# asin(i)/c (s)    =  N/A
# eccentricity     =  N/A
# w (rad)          =  N/A
# T_peri           =  N/A
######################################################
   0  1742.639
   1  1594.811
   2  1325.106
   3  1214.705
   4  1205.108
   5  652.3378
   6  944.6429
   7  685.6415
   8  562.5907
   9  722.2634
  10  449.097
  11  457.8584
  12  380.3174
  13  618.0051
  14  796.5579
  15  993.1292
  16  1120.399
  17  1142.396
  18  982.668
  19  1035.099
  20  878.085
  21  1190.788
  22  1001.898
  23  896.9349
  24  860.2346
  25  622.8305
  26  619.7345
  27  487.5256
  28  186.3
  29  555.186
  30  438.0739
  31  592.7477
  32  583.9955
  33  861.6817
  34  800.1697
  35  487.4371
  36  423.0233
  37  565.2335
  38  705.5034
  39  670.2348
  40  628.2836
  41  887.4581
  42  885.598
  43  1029.319
  44  737.4675
  45  767.386
  46  504.761
  47  785.2199
  48  898.1492
  49  308.987
  50  582.8559
  51  743.2133
  52  722.994
  53  623.3808
  54  994.9938
  55  1106.166
  56  1123.822
  57  929.9451
  58  798.303
  59  832.2394
  60  968.3604
  61  1048.89
  62  1315.577
  63  1216.643
  64  1167.138
  65  1192.737
  66  1130.881
  67  1120.042
  68  1156.686
  69  1130.725
  70  1554.668
  71  1379.211
  72  1358.227
  73  1588.018
  74  1567.419
  75  1760.103
  76  2152.504
  77  2126.99
  78  1959.452
  79  1375.165
  80  1609.878
  81  1624.066
  82  1638.211
  83  1389.092
  84  1369.514
  85  1287.727
  86  1170.675
  87  1520.86
  88  1797.64
  89  1755.332
  90  1798.753
  91  2166.824
  92  2177.192
  93  1992.677
  94  1972.177
  95  1779.718
  96  1683.597
  97  1450.612
  98  1452.425
  99  2027.721
 100  1958.635
 101  1851.341
 102  1880.708
 103  1875.077
 104  1570.051
 105  1737.341
 106  1722.373
 107  1715.257
 108  1417.834
 109  1614.252
 110  1530.888
 111  1481.692
 112  1347.925
 113  1233.307
 114  1602.339
 115  1787.107
 116  1376.135
 117  1332.783
 118  1131.173
 119  1487.375
 120  1459.116
 121  1450.854
 122  1983.927
 123  2080.644
 124  2309.046
 125  2121.233
 126  1653.693
 127  1635.582
 128  1471.599
 129  1488.342
 130  1533.45
 131  1766.589
 132  1438.278
 133  1433.729
 134  1677.443
 135  2010.492
 136  2225.15
 137  2125.671
 138  1877.72
 139  2030.521
 140  1915.18
 141  1814.648
 142  1904.712
 143  1804.468
 144  1356.503
 145  1540.791
 146  1385.477
 147  1528.171
 148  2051.039
 149  2208.944
 150  1693.205
 151  1618.655
 152  1310.635
 153  1253.641
 154  1599.335
 155  1638.439
 156  1843.557
 157  1739.737
 158  1469.671
 159  1271.033
 160  1163.383
 161  668.132
 162  572.0477
 163  806.5579
 164  985.448
 165  621.064
 166  160.8464
 167  195.6697
 168  455.8337
 169  550.6713
 170  771.7872
 171  574.1989
 172  839.5479
 173  410.3353
 174  74.21671
 175  19.3364
 176  210.0384
 177  369.0914
 178  363.5439
 179  463.7164
 180  426.7022
 181  918.6496
 182  751.4937
 183  698.2615
 184  849.8925
 185  929.5989
 186  1024.874
 187  984.2601
 188  1276.371
 189  1032.275
 190  1068.337
 191  971.4608
 192  734.9534
 193  525.0845
 194  550.1234
 195  1332.121
 196  1351.929
 197  1614.939
 198  1780.061
 199  1706.636
 200  1719.045
 201  2034.239
 202  1983.45
 203  1704.313
 204  1692.666
 205  1734.851
 206  1528.341
 207  2147.016
 208  2068.728
 209  1591.419
 210  1586.745
 211  1604.49
 212  1333.059
 213  1147.114
 214  1475.333
 215  1417.829
 216  1395.761
 217  1372.893
 218  1638.828
 219  1094.896
 220  1163.652
 221  1816.631
 222  1884.403
 223  1632.035
 224  1945.846
 225  1628.485
 226  1611.709
 227  1451.287
 228  1476.895
 229  1275.641
 230  1233.434
 231  1112.81
 232  1174.108
 233  924.82
 234  481.607
 235  507.9903
 236  442.2249
 237  168.5686
 238  322.3553
 239  593.8433
 240  457.8127
 241  687.4633
 242  964.2528
 243  1148.876
 244  1097.528
 245  861.9003
 246  897.343
 247  730.427
 248  838.9913
 249  1077.618
 250  1023.235
 251  980.5118
 252  773.4722
 253  509.2908
 254  860.0853
 255  757.2107
 256  570.0811
 257  835.7048
 258  332.6437
 259  446.282
 260  593.6697
 261  393.7173
 262  763.5695
 263  787.795
 264  784.3751
 265  417.2373
 266  325.9678
 267  282.6873
 268  286.8422
 269  255.316
 270  206.8904
 271  431.261
 272  665.417
 273  358.4779
 274  182.3702
 275  238.0784
 276  264.0535
 277  749.9463
 278  968.1069
 279  1280.583
 280  1228.514
 281  919.4887
 282  1042.901
 283  1297.584
 284  1247.262
 285  778.3818
 286  836.9598
 287  958.1825
 288  957.8438
 289  913.6966
 290  1061.517
 291  1320.759
 292  1730.581
 293  1724.411
 294  1365.678
 295  1392.92
 296  1739.321
 297  2015.227
 298  2500.391
 299  2876.1
 300  2968.803
 301  2711.895
 302  2485.234
 303  1947.18
 304  1595.954
 305  1345.05
 306  1129.191
 307  1105.034
 308  1256.086
 309  1350.513
 310  927.1974
 311  984.8068
 312  1290.009
 313  1475.453
 314  1346.905
 315  996.7026
 316  1130.339
 317  1151.873
 318  998.1342
 319  1165.118
 320  1022.395
 321  1461.421
 322  1260.865
 323  1265.473
 324  1447.725
 325  1296.664
 326  1383.696
 327  1327.738
 328  929.4854
 329  914.0039
 330  1038.004
 331  852.8718
 332  708.7558
 333  558.6918
 334  771.8481
 335  621.5231
 336  866.6851
 337  627.5402
 338  660.3381
 339  1070.375
 340  1151.263
 341  1336.995
 342  1367.048
 343  1683.718
 344  1829.487
 345  2112.341
 346  2137.643
 347  1989.794
 348  1936.209
 349  2304.373
 350  2489.979
 351  2357.644
 352  2265.822
 353  2346.721
 354  1768.962
 355  1759.18
 356  1787.02
 357  1967.96
 358  2291.784
 359  2522.199
 360  2508.664
 361  2699.248
 362  2711.511
 363  2315.017
 364  2267.091
 365  2338.15
 366  2226.184
 367  2125.953
 368  2183.518
 369  2530.597
 370  2512.121
 371  2227.023
 372  1570.668
 373  1686.7
 374  1768.89
 375  1772.971
 376  1901.33
 377  1912.938
 378  1603.066
 379  1794.283
 380  1643.568
 381  1284.232
 382  1456.201
 383  1690.124
 384  1563.831
 385  1446.275
 386  1430.491
 387  1599.008
 388  1467.531
 389  1385.799
 390  1631.48
 391  1512.43
 392  1235.443
 393  1361.259
 394  1094.4
 395  890.2355
 396  922.4479
 397  1059.478
 398  1089.318
 399  970.6045
 400  1170.305
 401  1533.133
 402  1381.221
 403  978.4855
 404  721.1299
 405  1062.968
 406  1241.793
 407  1357.294
 408  1353.489
 409  1104.884
 410  1543.115
 411  1537.536
 412  1619.302
 413  1671.653
 414  2001.182
 415  1761.041
 416  1220.382
 417  1250.06
 418  1100.669
 419  962.5764
 420  1078.297
 421  927.3475
 422  906.8295
 423  1260.815
 424  1174.33
 425  1208.696
 426  1321.513
 427  894.7614
 428  1126.072
 429  1387.247
 430  1541.107
 431  1421.575
 432  1171.263
 433  1228.462
 434  1198.329
 435  1280.316
 436  1050.498
 437  1293.871
 438  1465.534
 439  1455.127
 440  1271.82
 441  1350.689
 442  1354.2
 443  1208.714
 444  1333.481
 445  1586.956
 446  1637.085
 447  1792.691
 448  2092.317
 449  1933.344
 450  2082.929
 451  1936.089
 452  1666.961
 453  1528.67
 454  1652.89
 455  1734.403
 456  1505.224
 457  1626.11
 458  2016.929
 459  1596.828
 460  1428.201
 461  1306.18
 462  1442.057
 463  1361.499
 464  1720.387
 465  1645.058
 466  1893.152
 467  2202.189
 468  2211.743
 469  1884.156
 470  1670.773
 471  1602.998
 472  1558.981
 473  1751.263
 474  1961.443
 475  1742.313
 476  1558.757
 477  1931.347
 478  2117.262
 479  2080.646
 480  1920.386
 481  2100.718
 482  1892.875
 483  2112.412
 484  2336.398
 485  2545.685
 486  2653.109
 487  2777.497
 488  2585.328
 489  2451.198
 490  2290.688
 491  2156.752
 492  1798.489
 493  1706.662
 494  1753.766
 495  1995.051
 496  2074.287
 497  2485.314
 498  2139.352
 499  2129.889
 500  2184.595
 501  2379.973
 502  2079.454
 503  1810.119
 504  1749.793
 505  1577.426
 506  1089.994
 507  933.7307
 508  1561.389
 509  1128.872
 510  1189.218
 511  1505.971
