# Input file       =  1209475210.112065_cleaned.dat
# Candidate        =  PSR_0332+5434
# Telescope        =  AR
# Epoch_topo       =  58242.555892500750
# Epoch_bary       =  N/A
# T_sample         =  0.002
# Data Folded      =  7340032
# Data Avg         =  0.360056305961085
# Data StdDev      =  5.77034878792356 
# Profile Bins     =  512
# Profile Avg      =  5161.82472348652 
# Profile StdDev   =  690.901381331079 
# Reduced chi-sqr  =  0.800
# Prob(Noise)      <  1   (~0.0 sigma)
# P_topo (ms)      =  714.543835698152  +/- 0.000517
# P'_topo (s/s)    =  -0                +/- 2.73e-10
# P''_topo (s/s^2) =  0                 +/- 1.2e-13
# P_bary (ms)      =  N/A
# P'_bary (s/s)    =  N/A
# P''_bary (s/s^2) =  N/A
# P_orb (s)        =  N/A
# asin(i)/c (s)    =  N/A
# eccentricity     =  N/A
# w (rad)          =  N/A
# T_peri           =  N/A
######################################################
   0  5425.446
   1  5312.83
   2  5282.309
   3  5620.137
   4  5454.364
   5  5220.157
   6  5280.979
   7  5436.648
   8  5322.025
   9  5363.189
  10  5445.431
  11  5243.618
  12  5014.039
  13  4731.216
  14  4668.035
  15  4725.033
  16  5171.639
  17  5225.833
  18  5541.308
  19  5803.987
  20  6015.231
  21  6137.316
  22  5952.907
  23  5768.695
  24  5961.322
  25  5987.842
  26  5826.627
  27  5920.166
  28  5806.445
  29  5678.403
  30  5377.537
  31  5223.236
  32  5398.052
  33  5543.603
  34  5335.239
  35  5385.946
  36  5832.617
  37  5906.774
  38  5902.686
  39  6059.383
  40  5915.38
  41  5926.076
  42  5753.717
  43  5494.789
  44  5213.714
  45  5254.13
  46  5243.707
  47  4865.614
  48  5006.787
  49  5288.736
  50  5244.311
  51  5308.67
  52  5242.687
  53  5086.185
  54  5292.024
  55  5598.933
  56  5357.066
  57  5315.18
  58  5261.44
  59  4745.439
  60  4758.47
  61  5113.718
  62  5037.152
  63  5031.779
  64  5182.76
  65  5467.355
  66  5556.632
  67  5401.278
  68  5175.242
  69  5546.345
  70  5521.751
  71  5327.375
  72  5027.386
  73  5062.595
  74  5525.272
  75  5652.867
  76  5802.769
  77  5671.809
  78  5487.998
  79  4963.987
  80  4848.062
  81  4762.083
  82  4739.999
  83  4683.939
  84  5015.662
  85  5131.886
  86  5018.825
  87  4942.423
  88  4702.088
  89  4612.103
  90  4706.521
  91  4833.694
  92  4955.047
  93  4771.372
  94  4753.494
  95  4501.244
  96  4386.497
  97  4523.256
  98  4308.359
  99  4652.387
 100  4427.787
 101  4342.889
 102  4732.184
 103  4822.502
 104  4717.375
 105  4686.441
 106  5018.102
 107  5155.617
 108  4853.831
 109  5107.657
 110  5122.027
 111  4688.645
 112  3993.667
 113  4237.219
 114  4517.007
 115  4713.126
 116  4508.455
 117  4669.666
 118  4516.436
 119  4310.592
 120  4627.666
 121  4700.983
 122  4924.172
 123  4850.548
 124  5425.804
 125  5450.954
 126  5231.641
 127  5029.447
 128  5092.548
 129  4952.5
 130  4989.56
 131  5112.548
 132  5095.103
 133  4915.143
 134  5218.569
 135  5381.41
 136  5264.659
 137  5059.897
 138  5127.484
 139  5033.84
 140  5033.322
 141  4889.414
 142  5017.724
 143  5358.672
 144  5435.653
 145  5541.753
 146  6036.956
 147  6061.938
 148  5893.271
 149  5848.447
 150  5694.332
 151  5265.799
 152  5148.64
 153  5123.643
 154  5301.79
 155  5355.613
 156  5541.092
 157  5781.572
 158  5617.868
 159  5394.428
 160  5057.512
 161  5215.978
 162  5083.201
 163  5348.972
 164  5459.997
 165  5377.703
 166  5424.191
 167  5564.162
 168  5280.288
 169  5233.69
 170  5483.341
 171  5643.137
 172  5282.346
 173  5121.188
 174  4950.474
 175  5248.67
 176  5193.618
 177  5067.244
 178  4962.591
 179  4909.723
 180  4939.952
 181  5138.068
 182  5523.073
 183  5519.066
 184  5124.055
 185  5166.146
 186  5285.69
 187  5024.271
 188  5345.934
 189  5359.95
 190  5232.569
 191  5425.581
 192  5317.854
 193  5264.477
 194  5670.32
 195  5491.129
 196  5590.675
 197  5833.838
 198  5575.773
 199  5207.098
 200  5270.093
 201  5659.966
 202  5431.358
 203  5144.397
 204  4971.369
 205  4992.212
 206  4898.882
 207  4861.387
 208  4550.822
 209  4547.403
 210  4346.088
 211  4044.026
 212  4264.84
 213  4246.661
 214  4182.578
 215  4043.194
 216  3964.302
 217  4070.659
 218  4079.282
 219  4467.539
 220  4476.826
 221  4203.882
 222  4186.209
 223  3968.818
 224  3855.137
 225  4326.499
 226  4627.254
 227  4547.362
 228  4643.396
 229  4764.406
 230  4606.65
 231  4467.379
 232  4736.795
 233  4700.009
 234  4793.385
 235  5403.612
 236  5438.861
 237  5516.996
 238  5338.069
 239  4991.587
 240  4797.841
 241  4975.097
 242  5167.714
 243  5023.659
 244  4788.227
 245  4552.326
 246  4720.156
 247  5124.852
 248  5218.493
 249  4780.818
 250  4514.421
 251  5069.858
 252  5175.589
 253  5093.233
 254  5702.506
 255  5389.544
 256  4998.312
 257  4421.134
 258  4286.389
 259  4611.959
 260  4466.644
 261  4222.258
 262  4185.519
 263  4299.849
 264  3844.244
 265  4106.945
 266  4730.159
 267  4642.408
 268  4403.709
 269  4714.302
 270  4673.22
 271  4602.809
 272  4922.663
 273  5258.969
 274  5019.205
 275  5191.354
 276  5346.179
 277  5121.35
 278  4936.661
 279  5040.798
 280  5084.653
 281  4918.572
 282  5288.457
 283  5454.76
 284  5095.964
 285  5165
 286  5216.256
 287  5069.511
 288  4964.795
 289  5775.386
 290  6325.984
 291  6855.007
 292  6885.337
 293  6805.377
 294  6304.605
 295  5921.246
 296  5456.455
 297  4818.513
 298  4829.843
 299  4949.392
 300  5130.22
 301  4891.651
 302  4824.32
 303  5004.955
 304  5293.21
 305  5673.679
 306  5360.703
 307  5242.139
 308  4926.087
 309  4665.667
 310  4938.195
 311  4713.046
 312  4875.752
 313  4920.401
 314  4567.715
 315  4384.792
 316  4401.771
 317  4600.007
 318  4887.338
 319  4455.788
 320  4735.064
 321  5112.865
 322  4866.795
 323  4782.837
 324  4590.164
 325  5067.091
 326  4739.047
 327  4496.902
 328  4894.138
 329  5153.522
 330  5551.752
 331  5485.978
 332  5511.362
 333  5432.085
 334  5601.155
 335  5494.162
 336  5195.284
 337  5356.69
 338  5662.236
 339  5517.255
 340  5719.898
 341  5461.508
 342  5549.143
 343  5446.979
 344  5560.726
 345  5537.952
 346  5419.823
 347  5423.646
 348  5340.8
 349  5742.52
 350  5617.494
 351  5572.438
 352  5345.161
 353  5681.674
 354  5843.771
 355  5463.109
 356  5783.707
 357  5883.212
 358  5690.205
 359  5401.435
 360  5494.358
 361  5195.511
 362  5270.622
 363  5389.132
 364  5168.667
 365  5310.4
 366  5574.039
 367  5497.896
 368  5269.773
 369  4850.365
 370  5194.963
 371  5675.747
 372  5635.135
 373  5676.062
 374  5167.001
 375  4864.968
 376  5216.306
 377  5428.473
 378  5420.256
 379  5594.572
 380  5326.229
 381  5205.038
 382  5060.199
 383  5140.975
 384  5389.856
 385  5220.545
 386  5332.192
 387  5476.508
 388  5585.105
 389  5348.98
 390  5095.978
 391  4845.553
 392  5056.232
 393  5131.941
 394  5250.53
 395  4903.604
 396  4891.138
 397  4861.077
 398  5038.43
 399  5605.645
 400  5649.506
 401  5762.089
 402  5715.552
 403  5840.616
 404  5754.591
 405  5680.129
 406  5745.444
 407  5915.18
 408  5985.729
 409  5480.402
 410  5392.008
 411  5517.854
 412  5346.424
 413  5096.897
 414  5234.788
 415  5245.592
 416  5556.401
 417  5147.496
 418  4948.567
 419  4707.599
 420  4769.562
 421  4919.025
 422  4916.156
 423  4909.363
 424  4894.511
 425  4774.413
 426  4644.362
 427  4726.883
 428  5292.07
 429  5516.815
 430  5017.641
 431  5219.808
 432  5584.864
 433  5701.209
 434  5288.346
 435  5349.345
 436  5567.976
 437  5457.632
 438  5211.634
 439  4890.442
 440  4828.981
 441  4836.364
 442  4822.184
 443  4993.974
 444  4960.042
 445  4824.958
 446  5145.654
 447  5322.646
 448  5226.557
 449  5084.518
 450  5092.466
 451  5442.012
 452  5140.853
 453  4974.271
 454  5323.392
 455  5433.659
 456  5264.803
 457  4921.641
 458  5250.559
 459  4918.321
 460  4802.847
 461  5207.875
 462  5454.059
 463  5321.546
 464  5580.8
 465  5141.229
 466  5189.699
 467  5993.52
 468  5779.885
 469  5483.862
 470  5180.043
 471  5219.063
 472  5201.927
 473  5125.265
 474  4928.043
 475  4660.556
 476  4764.671
 477  5278.582
 478  5179.858
 479  5185.886
 480  5138.503
 481  5309.916
 482  5271.32
 483  5429.534
 484  5296.775
 485  5271.137
 486  5593.378
 487  5855.116
 488  5525.752
 489  5330.509
 490  5605.432
 491  5616.498
 492  5483.509
 493  5669.76
 494  5797.417
 495  5539.72
 496  5258.483
 497  5024.207
 498  5097.148
 499  5212.282
 500  5064.585
 501  5106.176
 502  4855.117
 503  5081.773
 504  4863.772
 505  5096.968
 506  5215.552
 507  4760.961
 508  4633.254
 509  4699.291
 510  4910.573
 511  5474.662
