# Input file       =  1209187230.109958_cleaned.dat
# Candidate        =  PSR_0332+5434
# Telescope        =  AR
# Epoch_topo       =  58239.222790624510
# Epoch_bary       =  N/A
# T_sample         =  0.002
# Data Folded      =  7208960
# Data Avg         =  0.205901248191103
# Data StdDev      =  5.82556207351856 
# Profile Bins     =  256
# Profile Avg      =  5798.12486153463 
# Profile StdDev   =  977.584167723315 
# Reduced chi-sqr  =  2.107
# Prob(Noise)      <  2.86e-22   (~9.6 sigma)
# P_topo (ms)      =  714.546520884392  +/- 3.21e-05
# P'_topo (s/s)    =  -0                +/- 1.73e-11
# P''_topo (s/s^2) =  0                 +/- 7.76e-15
# P_bary (ms)      =  N/A
# P'_bary (s/s)    =  N/A
# P''_bary (s/s^2) =  N/A
# P_orb (s)        =  N/A
# asin(i)/c (s)    =  N/A
# eccentricity     =  N/A
# w (rad)          =  N/A
# T_peri           =  N/A
######################################################
   0  6094.282
   1  5568.34
   2  5441.675
   3  6384.868
   4  5463.855
   5  4322.415
   6  3392.11
   7  5073.211
   8  6171.639
   9  6648.057
  10  5535.467
  11  6343.146
  12  5841.211
  13  5127.162
  14  3827.741
  15  5660.5
  16  5885.252
  17  5788.301
  18  5760.584
  19  6914.848
  20  5860.521
  21  4354.063
  22  4127.343
  23  5692.744
  24  6884.867
  25  5585.794
  26  5369.576
  27  6629.495
  28  6931.243
  29  4860.197
  30  4001.779
  31  5105.907
  32  7341.478
  33  6205.947
  34  5194.327
  35  5611.83
  36  7734.5
  37  5627.825
  38  3621.042
  39  3185.415
  40  5919.344
  41  6868.511
  42  5279.088
  43  4914.958
  44  5757.218
  45  6201.079
  46  4635.239
  47  3908.266
  48  5257.741
  49  6769.68
  50  6063.896
  51  4757.165
  52  6095.096
  53  6313.159
  54  4603.434
  55  4153.569
  56  5767.25
  57  7121.073
  58  6443.019
  59  6196.378
  60  7876.94
  61  7610.698
  62  5592.776
  63  5640.589
  64  6401.543
  65  7259.096
  66  6231.944
  67  7517.061
  68  8111.895
  69  7660.235
  70  6102.485
  71  5397.154
  72  5557.389
  73  7539.624
  74  8416.286
  75  6114.157
  76  6638.112
  77  9088.125
  78  7405.916
  79  5360.501
  80  4674.244
  81  6948.239
  82  7659.958
  83  6779.336
  84  5899.33
  85  7549.97
  86  7291.251
  87  5987.33
  88  4014.345
  89  4827.298
  90  7594.204
  91  6697.482
  92  5491.235
  93  6083.951
  94  7375.943
  95  5603.219
  96  4234.774
  97  4338.019
  98  6402.297
  99  5868.441
 100  5843.133
 101  5681.006
 102  6968.347
 103  5240.572
 104  4699.845
 105  5075.726
 106  7497.012
 107  6832.426
 108  6131.317
 109  7224.637
 110  8275.372
 111  6290.079
 112  4776.074
 113  4737.389
 114  7163.601
 115  8747.747
 116  6767.035
 117  5677.825
 118  7569.961
 119  7678.879
 120  4959.748
 121  4243.229
 122  6058.589
 123  7872.187
 124  7071.296
 125  5753.954
 126  5973.464
 127  6779.763
 128  5593.643
 129  4301.165
 130  4370.3
 131  6508.3
 132  6692.033
 133  5430.278
 134  5454.548
 135  6964.112
 136  5608.662
 137  4150.469
 138  4086.749
 139  6574.892
 140  7250.396
 141  6031.644
 142  6147.885
 143  7484.004
 144  5920.095
 145  4029.602
 146  4515.863
 147  6996.486
 148  8447.248
 149  8776.431
 150  9349.582
 151  9183.31
 152  7392.273
 153  4702.86
 154  3935.068
 155  5512.544
 156  7477.889
 157  6387.455
 158  5720.676
 159  6471.725
 160  6556.5
 161  4779.614
 162  3242.166
 163  3358.815
 164  6679.677
 165  7007.617
 166  5109.401
 167  5078.137
 168  6696.652
 169  5548.357
 170  4004.095
 171  2902.879
 172  5237.656
 173  6230.85
 174  6113.693
 175  5516.777
 176  6226.992
 177  5422.384
 178  4825.956
 179  4214.795
 180  5228.963
 181  6032.372
 182  4919.498
 183  5285.14
 184  6198.368
 185  6505.233
 186  5595.154
 187  5008.4
 188  4898.668
 189  6832.175
 190  6713.713
 191  5574.162
 192  6179.187
 193  6827.02
 194  5328.775
 195  3186.107
 196  3942.434
 197  7248.011
 198  6044.881
 199  5745.402
 200  5672.005
 201  6173.36
 202  5014.003
 203  4759.014
 204  3697.785
 205  5321.421
 206  7301.032
 207  5311.925
 208  4592.789
 209  6141.522
 210  6023.355
 211  4196.098
 212  3630.89
 213  4974.931
 214  6845.6
 215  5692.521
 216  4829.266
 217  6183.714
 218  6392.013
 219  5278.903
 220  3946.817
 221  4241.556
 222  6494.241
 223  6636.375
 224  6282.713
 225  5493.122
 226  5583.857
 227  4976.463
 228  4723.749
 229  3767.81
 230  5696.108
 231  5695.469
 232  5162.66
 233  5907.083
 234  6811.048
 235  4658.51
 236  3334.553
 237  3182.061
 238  6400.51
 239  5843.181
 240  5102.971
 241  5544.822
 242  7158.918
 243  5347.216
 244  4720.518
 245  3976.731
 246  5498.938
 247  6487.185
 248  5589.963
 249  4382.353
 250  5675.301
 251  6758.153
 252  5042.603
 253  3411.057
 254  3789.514
 255  6819.5
