# Input file       =  1209014843.115618_cleaned.dat
# Candidate        =  PSR_0332+5434
# Telescope        =  AR
# Epoch_topo       =  58237.227570782612
# Epoch_bary       =  N/A
# T_sample         =  0.002
# Data Folded      =  7208960
# Data Avg         =  0.265631577138662
# Data StdDev      =  5.68260591930723 
# Profile Bins     =  1024
# Profile Avg      =  1869.99920433743 
# Profile StdDev   =  476.79738950668  
# Reduced chi-sqr  =  1.084
# Prob(Noise)      <  0.0319   (~1.9 sigma)
# P_topo (ms)      =  714.548301847142  +/- 2.59e-05
# P'_topo (s/s)    =  -0                +/- 1.39e-11
# P''_topo (s/s^2) =  0                 +/- 6.25e-15
# P_bary (ms)      =  N/A
# P'_bary (s/s)    =  N/A
# P''_bary (s/s^2) =  N/A
# P_orb (s)        =  N/A
# asin(i)/c (s)    =  N/A
# eccentricity     =  N/A
# w (rad)          =  N/A
# T_peri           =  N/A
######################################################
   0  1805.542
   1  1522.732
   2  1440.009
   3  1199.77
   4  1206.291
   5  1382.576
   6  1388.456
   7  1597.012
   8  1556.422
   9  1748.174
  10  1839.989
  11  1819.637
  12  1980.044
  13  1975.097
  14  2101.513
  15  2319.44
  16  2181.61
  17  2352.948
  18  1925.251
  19  1659.709
  20  1541.096
  21  1324.101
  22  1420.523
  23  1436.916
  24  1544.247
  25  1489.629
  26  1427.392
  27  1683.959
  28  1702.17
  29  1629.69
  30  1903.694
  31  2040.411
  32  2351.55
  33  2207.238
  34  2284.635
  35  2027.786
  36  1692.851
  37  1745.778
  38  1822.194
  39  1892.069
  40  2032.341
  41  1969.5
  42  2158.121
  43  1818.623
  44  1726.605
  45  1850.812
  46  1910.712
  47  2150.85
  48  2155.359
  49  2190.634
  50  2309.577
  51  1837.033
  52  1931.465
  53  1817.461
  54  1640.578
  55  1939.829
  56  1977.71
  57  2238.137
  58  2142.354
  59  2190.399
  60  2332.915
  61  2090.344
  62  2010.23
  63  2166.367
  64  2079.73
  65  2174.826
  66  1987.577
  67  1980.644
  68  1696.768
  69  1638.194
  70  1813.57
  71  1818.137
  72  1812.035
  73  1877.014
  74  1939.88
  75  2203.189
  76  2168.748
  77  2319.73
  78  2300.295
  79  2256.884
  80  2528.818
  81  2415.577
  82  2365.592
  83  2152.931
  84  1877.368
  85  1958.499
  86  1606.716
  87  1589.956
  88  1734.106
  89  1770.703
  90  1893.925
  91  1997.748
  92  2267.392
  93  2327.41
  94  2019.775
  95  2138.555
  96  2056.068
  97  2065.694
  98  2187.845
  99  2264.969
 100  2233.09
 101  1803.533
 102  1675.416
 103  1598.459
 104  1491.89
 105  1701.035
 106  1728.594
 107  1966.856
 108  1914.615
 109  1793.966
 110  2031.486
 111  2034.985
 112  2200.966
 113  2192.624
 114  2185.281
 115  2415.495
 116  2029.71
 117  1823.753
 118  1712.722
 119  1485.447
 120  1769.567
 121  1862.829
 122  2040.825
 123  2071.589
 124  1938.459
 125  2124.119
 126  1960.506
 127  1888.558
 128  2114.791
 129  2031.2
 130  2053.28
 131  1983.016
 132  1898.308
 133  1913.991
 134  1685.723
 135  1834.579
 136  1640.315
 137  1694.175
 138  1939.921
 139  2120.132
 140  2432.582
 141  2237.688
 142  2309.901
 143  2345.708
 144  2322.699
 145  2386.556
 146  2257.962
 147  2207.777
 148  2344.373
 149  2171.491
 150  2131.128
 151  1691.759
 152  1405.128
 153  1640.299
 154  1621.596
 155  1673.087
 156  1684.932
 157  1951.676
 158  2226.3
 159  2014.121
 160  2059.676
 161  1915.115
 162  1734.046
 163  1947.735
 164  2185.074
 165  2352.648
 166  2003.04
 167  1864.642
 168  1724.104
 169  1511.879
 170  1550.418
 171  1598.948
 172  1625.048
 173  1688.489
 174  1645.794
 175  2033.271
 176  1968.431
 177  1930.41
 178  2028.376
 179  2048.287
 180  2386.538
 181  2164.995
 182  2074.076
 183  2021.526
 184  1582.894
 185  1420.512
 186  1304.014
 187  1215.611
 188  1445.042
 189  1548.87
 190  1900.153
 191  1794.494
 192  1591.066
 193  1745.792
 194  1655.749
 195  1802.812
 196  1996.637
 197  1991.52
 198  1982.372
 199  1623.127
 200  1788.277
 201  1678.594
 202  1652.199
 203  1751.788
 204  1653.745
 205  1758.122
 206  1797.878
 207  1955.137
 208  2061.95
 209  1760.25
 210  1723.988
 211  1802.73
 212  1801.14
 213  2026.563
 214  1928.07
 215  2021.796
 216  1758.698
 217  1254.506
 218  1354.642
 219  1285.439
 220  1309.36
 221  1431.275
 222  1604.526
 223  1864.81
 224  1691.454
 225  1740.963
 226  1763.854
 227  1581.176
 228  1886.938
 229  1996.623
 230  2127.081
 231  2002.183
 232  1940.264
 233  1799.745
 234  1491.219
 235  1436.258
 236  1493.916
 237  1374.963
 238  1615.332
 239  1679.169
 240  1966.277
 241  1900.949
 242  1775.01
 243  1982.377
 244  1914.9
 245  2063.299
 246  2144.014
 247  2026.949
 248  1998.868
 249  1567.541
 250  1495.662
 251  1498.221
 252  1247.55
 253  1415.309
 254  1455.208
 255  1723.39
 256  1850.763
 257  1674.39
 258  1823.727
 259  1547.172
 260  1471.879
 261  1655.802
 262  1662.838
 263  1887.126
 264  1778.458
 265  1836.677
 266  1672.837
 267  1390.953
 268  1537.036
 269  1575.579
 270  1634.738
 271  1663.035
 272  1580.628
 273  1882.465
 274  1743.95
 275  1669.126
 276  1661.731
 277  1563.257
 278  1773.125
 279  1790.909
 280  1875.739
 281  1848.609
 282  1503.057
 283  1526.55
 284  1399.826
 285  1245.015
 286  1532.587
 287  1538.877
 288  1724.738
 289  1662.932
 290  1883.159
 291  2027.181
 292  1802.385
 293  1784.69
 294  2089.385
 295  2147.392
 296  2289.625
 297  2066.975
 298  1956.965
 299  1527.702
 300  1437.482
 301  1586.02
 302  1535.346
 303  1660.994
 304  1737.224
 305  1896.214
 306  2030.99
 307  1911.369
 308  2050.539
 309  1896.996
 310  1984.882
 311  2093.237
 312  2000.93
 313  2125.245
 314  2075.295
 315  1929.203
 316  1858.614
 317  1363.057
 318  1331.709
 319  1473.452
 320  1636.851
 321  1883.094
 322  1666.911
 323  1933.281
 324  1717.876
 325  1628.77
 326  1738.843
 327  1750.545
 328  1870.358
 329  1920.108
 330  1981.324
 331  2067.92
 332  1857.945
 333  1915.592
 334  1795.351
 335  1632.576
 336  1846.531
 337  1809.511
 338  2092.051
 339  1877.877
 340  1838.009
 341  2035.41
 342  2069.666
 343  2309.341
 344  2385.604
 345  2468.231
 346  2602.473
 347  2218.9
 348  2012.921
 349  1670.562
 350  1289.025
 351  1391.293
 352  1392.186
 353  1613.132
 354  1764.226
 355  1943.609
 356  2074.305
 357  1929.708
 358  1792.819
 359  2133.969
 360  2158.579
 361  2273.166
 362  2159.924
 363  2056.508
 364  1954.302
 365  1769.437
 366  1705.463
 367  1362.696
 368  1384.335
 369  1622.702
 370  1700.69
 371  1793.783
 372  1727.486
 373  1943.859
 374  2002.338
 375  2013.567
 376  2176.899
 377  2119.302
 378  2235.982
 379  2383.247
 380  2209.515
 381  2085.465
 382  1486.319
 383  1349.269
 384  1504.165
 385  1453.489
 386  1631.832
 387  1690.695
 388  1856.364
 389  1818.837
 390  1628.98
 391  1738.848
 392  1753.808
 393  1743.521
 394  1962.582
 395  1974.288
 396  2076.432
 397  1899.257
 398  1909.818
 399  1804.838
 400  1618.999
 401  1705.878
 402  1615.951
 403  1633.327
 404  1753.077
 405  1667.047
 406  1849.144
 407  1671.247
 408  1847.133
 409  1933.932
 410  1896.15
 411  2121.204
 412  1898.553
 413  1756.359
 414  1683.052
 415  1494.613
 416  1775.203
 417  1825.789
 418  1541.409
 419  1550.919
 420  1644.657
 421  2123.076
 422  1996.425
 423  1785.682
 424  1886.169
 425  1646.695
 426  1793.94
 427  1950.635
 428  1930.538
 429  2001.648
 430  1731.693
 431  1798.928
 432  1488.33
 433  1490.999
 434  1747.619
 435  1708.755
 436  1816.463
 437  1626.989
 438  1753.46
 439  1828
 440  1858.965
 441  2085.857
 442  1982.499
 443  1902.441
 444  1970.613
 445  1940.107
 446  1908.377
 447  1633.481
 448  1368.854
 449  1480.462
 450  1242.036
 451  1331.472
 452  1478.164
 453  1643.774
 454  1791.571
 455  1541.872
 456  1672.527
 457  1668.032
 458  1759.41
 459  1912.323
 460  1988.822
 461  1999.352
 462  1986.296
 463  1921.93
 464  1706.239
 465  1340.955
 466  1327.107
 467  1454.168
 468  1440.552
 469  1689.159
 470  1504.562
 471  1718.87
 472  1726.147
 473  1761.464
 474  1969.301
 475  1922.667
 476  2216.34
 477  2210.557
 478  2051.318
 479  2144.34
 480  1665.843
 481  1603.196
 482  1499.943
 483  1392.861
 484  1635.204
 485  1677.628
 486  1907.235
 487  1883.873
 488  1756.687
 489  1944.524
 490  1750.576
 491  1584.831
 492  1750.842
 493  1775.738
 494  2060.266
 495  1969.222
 496  2013.132
 497  1764.54
 498  1543.9
 499  1709.453
 500  1731.664
 501  1795.92
 502  1773.131
 503  1780.472
 504  1926.472
 505  1671.85
 506  1686.379
 507  1736.647
 508  1857.336
 509  2173.627
 510  2272.816
 511  2335.001
 512  2289.817
 513  1971.886
 514  1902.852
 515  1526.471
 516  1295.363
 517  1526.419
 518  1627.739
 519  1811.26
 520  1653.101
 521  1849.839
 522  1923.401
 523  1755.245
 524  1882.662
 525  2063.033
 526  2136.168
 527  2347.712
 528  2331.213
 529  2266.697
 530  1756.018
 531  1624.012
 532  1517.391
 533  1357.735
 534  1552.681
 535  1704.455
 536  1997.112
 537  1980.576
 538  1808.473
 539  1959.893
 540  1864.459
 541  2071.759
 542  2279.018
 543  2176.684
 544  2265.3
 545  2102.28
 546  2271.593
 547  2306.756
 548  1829.727
 549  1781.884
 550  1760.739
 551  1770.086
 552  1783.183
 553  1768.195
 554  2055.561
 555  1896.669
 556  1785.926
 557  1905.877
 558  1785.485
 559  1801.381
 560  1849.704
 561  1894.869
 562  2011.124
 563  1801.041
 564  1907.842
 565  1726.589
 566  1570.525
 567  1830.68
 568  1941.021
 569  2227.644
 570  2101.729
 571  2134.939
 572  2369.442
 573  2158.015
 574  2161.999
 575  1926.063
 576  1823.781
 577  2044.498
 578  1954.507
 579  2193.042
 580  2017.481
 581  1759.526
 582  1858.901
 583  1753.987
 584  1810.646
 585  1764.655
 586  1952.303
 587  2194.168
 588  2067.089
 589  2116.909
 590  2182.869
 591  2006.141
 592  2270.809
 593  2463.805
 594  2591.268
 595  2402.031
 596  2278.872
 597  2367.986
 598  2292.463
 599  2499.2
 600  2619.617
 601  2710.622
 602  2848.737
 603  2712.374
 604  2763.765
 605  2673.736
 606  2640.264
 607  2679.644
 608  2459.851
 609  2529.828
 610  2502.212
 611  2353.141
 612  2277.966
 613  1797.826
 614  1722.08
 615  1882.483
 616  1853.458
 617  1816.336
 618  1590.579
 619  1763.054
 620  1962.121
 621  1942.354
 622  2168.41
 623  2031.438
 624  2124.865
 625  2186.117
 626  2213.116
 627  2224.762
 628  2061.513
 629  1861.146
 630  1656.01
 631  1481.9
 632  1761.447
 633  1811.846
 634  1872.031
 635  1845.481
 636  1756.927
 637  2057.202
 638  1981.159
 639  2070.487
 640  1977.581
 641  1864.629
 642  2196.31
 643  2088.753
 644  2044.738
 645  1903.088
 646  1609.062
 647  1650.123
 648  1453.565
 649  1307.553
 650  1620.031
 651  1802.604
 652  2083.079
 653  1938.343
 654  1852.762
 655  1868.004
 656  1703.299
 657  1833.758
 658  2007.967
 659  2011.938
 660  2105.926
 661  1905.902
 662  1773.134
 663  1479.573
 664  1444.636
 665  1509.048
 666  1502.205
 667  1591.984
 668  1638.453
 669  1852.832
 670  2057.949
 671  2006.428
 672  2013.976
 673  1986.65
 674  2042.396
 675  2142.222
 676  2013.071
 677  2092.767
 678  1749.322
 679  1500.035
 680  1526.43
 681  1338.625
 682  1331.884
 683  1358.247
 684  1526.531
 685  1651.557
 686  1590.332
 687  1749.609
 688  1828.745
 689  1782.628
 690  1954.904
 691  1927.292
 692  1967.997
 693  1963.959
 694  2012.222
 695  1921.832
 696  1627.835
 697  1756.167
 698  1806.132
 699  1729.507
 700  1888.218
 701  1901.249
 702  2169.26
 703  1917.916
 704  1780.675
 705  1969.756
 706  1873.702
 707  2024.609
 708  1995.119
 709  2131.954
 710  2269.768
 711  1829.39
 712  2015.39
 713  1801.008
 714  1571.422
 715  1708.406
 716  1716.266
 717  1874.304
 718  1725.968
 719  1740.266
 720  1901.466
 721  1696.588
 722  1724.839
 723  2001.145
 724  2188.247
 725  2419.831
 726  2335.172
 727  2291.006
 728  1898.16
 729  1703.525
 730  1666.594
 731  1609.21
 732  1566.222
 733  1783.986
 734  1720.641
 735  1902.606
 736  1741.633
 737  1950.225
 738  1946.208
 739  2094.107
 740  2389.091
 741  2315.796
 742  2120.044
 743  1977.356
 744  1716.066
 745  1878.5
 746  1612.951
 747  1635.619
 748  1642.93
 749  1524.092
 750  1687.626
 751  1753.884
 752  1883.865
 753  1898.702
 754  1783.406
 755  1999.912
 756  1914.953
 757  1906.049
 758  2064.441
 759  2135.325
 760  2251.809
 761  1868.921
 762  1699.148
 763  1555.534
 764  1386.793
 765  1694.338
 766  1684.31
 767  1762.12
 768  1692.09
 769  1607.345
 770  1887.738
 771  1885.395
 772  2040.374
 773  2025.078
 774  1926.991
 775  2057.962
 776  2014.366
 777  1990.754
 778  1873.592
 779  1548.784
 780  1687.55
 781  1782.745
 782  1804.077
 783  2009.096
 784  1908.276
 785  2072.972
 786  1853.718
 787  1782.167
 788  1997.393
 789  1856.594
 790  2010.681
 791  2019.803
 792  2004.308
 793  1974.77
 794  1692.839
 795  1669.066
 796  1434.137
 797  1494.953
 798  1952.023
 799  2022.786
 800  2111.844
 801  2058.652
 802  2253.119
 803  2277.841
 804  2026.827
 805  2215.37
 806  2292.778
 807  2202.84
 808  2208.517
 809  1989.338
 810  2048.263
 811  1657.267
 812  1474.321
 813  1594.747
 814  1508.86
 815  1608.829
 816  1905.474
 817  2074.869
 818  2063.559
 819  1843.655
 820  1994.294
 821  1941.828
 822  1709.777
 823  1925.12
 824  2092.57
 825  2328.644
 826  2188.728
 827  2064.243
 828  1694.891
 829  1352.541
 830  1410.021
 831  1456.866
 832  1477.476
 833  1639.527
 834  1528.177
 835  1797.436
 836  1762.641
 837  1940.037
 838  2060.815
 839  1936.284
 840  2121.668
 841  2139.593
 842  2001.714
 843  1865.747
 844  1332.936
 845  1373.471
 846  1381.682
 847  1396.586
 848  1716.737
 849  1834.443
 850  2012.304
 851  1956.527
 852  1813.35
 853  2128.975
 854  1999.28
 855  2025.633
 856  2086.298
 857  1989.834
 858  1999.263
 859  1677.086
 860  1631.85
 861  1445.179
 862  1432.943
 863  1678.912
 864  1782.498
 865  1858.198
 866  1960.439
 867  1947.29
 868  2123.024
 869  1955.428
 870  2158.475
 871  2172.74
 872  2005.265
 873  2268.745
 874  2277.893
 875  2435.464
 876  2184.389
 877  1865.031
 878  1939.064
 879  1745.722
 880  1699.096
 881  1852.123
 882  1869.673
 883  1887.961
 884  1724.353
 885  1845.102
 886  1978.65
 887  1877.535
 888  2264.979
 889  2448.826
 890  2598.407
 891  2678.049
 892  2653.656
 893  2483.305
 894  1987.391
 895  1894.376
 896  1873.267
 897  1808.382
 898  1919.489
 899  1930.804
 900  2153.208
 901  2023.336
 902  1902.244
 903  1963.672
 904  1981.239
 905  2203.556
 906  2461.392
 907  2455.109
 908  2481.95
 909  2228.732
 910  2204.719
 911  2280.882
 912  2010.365
 913  1938.647
 914  1842.468
 915  1824.628
 916  2023.008
 917  1901.621
 918  2114.315
 919  1866.472
 920  1837.95
 921  2058.856
 922  1965.546
 923  2158.706
 924  2168.198
 925  2148.448
 926  1943.893
 927  1584.221
 928  1696.131
 929  1551.436
 930  1531.318
 931  1863.939
 932  2101.27
 933  2340.362
 934  2069.653
 935  2089.193
 936  2219.831
 937  2133.856
 938  2106.758
 939  2115.234
 940  2137.141
 941  2162.435
 942  1736.784
 943  1753.344
 944  1656.45
 945  1517.59
 946  1661.222
 947  1628.9
 948  1780.06
 949  1883.671
 950  2073.893
 951  2195.21
 952  1852.004
 953  1690.568
 954  1720.727
 955  1660.576
 956  1920.519
 957  2044.214
 958  2004.51
 959  1798.011
 960  1598.674
 961  1612.121
 962  1459.591
 963  1641.09
 964  1795.479
 965  1983.096
 966  2060.359
 967  2019.781
 968  2148.445
 969  2232.131
 970  2189.296
 971  2255.204
 972  2075.761
 973  2094.184
 974  1887.618
 975  1788.549
 976  1795.559
 977  1505.935
 978  1393.362
 979  1496.202
 980  1493.15
 981  1667.592
 982  1715.195
 983  1854.552
 984  1746.585
 985  1548.778
 986  1713.985
 987  1695.899
 988  1656.471
 989  1808.713
 990  1834.273
 991  1887.083
 992  1478.183
 993  1427.115
 994  1368.467
 995  1343.631
 996  1610.696
 997  1609.739
 998  1742.799
 999  1700.111
1000  1852.112
1001  2150.092
1002  1990.497
1003  2065.019
1004  2044.652
1005  1982.795
1006  2146.364
1007  1815.574
1008  1717.905
1009  1407.463
1010  1145.339
1011  1228.513
1012  1202.163
1013  1206.537
1014  1459.581
1015  1654.869
1016  1942.884
1017  1840.728
1018  1667.946
1019  1740.401
1020  1600.125
1021  1843.503
1022  1932.345
1023  1920.031
