# Input file       =  1209374171.10886_cleaned.dat
# Candidate        =  PSR_0332+5434
# Telescope        =  AR
# Epoch_topo       =  58241.386459593290
# Epoch_bary       =  N/A
# T_sample         =  0.002
# Data Folded      =  7340032
# Data Avg         =  0.0595955859597386
# Data StdDev      =  6.65752368333953 
# Profile Bins     =  512
# Profile Avg      =  854.36119031071  
# Profile StdDev   =  797.125525356474 
# Reduced chi-sqr  =  0.717
# Prob(Noise)      <  1   (~0.0 sigma)
# P_topo (ms)      =  714.54457397556   +/- 0.00118
# P'_topo (s/s)    =  -0                +/- 6.25e-10
# P''_topo (s/s^2) =  0                 +/- 2.76e-13
# P_bary (ms)      =  N/A
# P'_bary (s/s)    =  N/A
# P''_bary (s/s^2) =  N/A
# P_orb (s)        =  N/A
# asin(i)/c (s)    =  N/A
# eccentricity     =  N/A
# w (rad)          =  N/A
# T_peri           =  N/A
######################################################
   0  1516.797
   1  1263.465
   2  1326.038
   3  1353.479
   4  1605.605
   5  1823.662
   6  1498.829
   7  1543.021
   8  1382.97
   9  1249.511
  10  1519.364
  11  1333.872
  12  1456.083
  13  1155.084
  14  1288.703
  15  1738.892
  16  1617.128
  17  961.3726
  18  640.3807
  19  999.7214
  20  981.1184
  21  923.0853
  22  878.0253
  23  796.1312
  24  1116.129
  25  984.8911
  26  968.7502
  27  1373.919
  28  1281.385
  29  1382.962
  30  1181.006
  31  1350.782
  32  1321.779
  33  1009.443
  34  638.6834
  35  575.3092
  36  878.9374
  37  1389.665
  38  1350.097
  39  1008.148
  40  967.062
  41  801.356
  42  1034.241
  43  1290.439
  44  1273.692
  45  1190.089
  46  1341.949
  47  684.0423
  48  887.8855
  49  1000.918
  50  730.2095
  51  622.3909
  52  451.2648
  53  589.8552
  54  111.5412
  55  427.1269
  56  377.1177
  57  513.7793
  58  705.9349
  59  666.0498
  60  590.6861
  61  429.5705
  62  1179.874
  63  1264.213
  64  1104.518
  65  887.4156
  66  898.8314
  67  882.174
  68  1267.487
  69  1094.621
  70  899.9332
  71  1080.049
  72  916.5855
  73  1279.714
  74  1320.031
  75  1039.008
  76  1466.164
  77  1434.132
  78  985.1054
  79  1130.467
  80  1427.757
  81  1595.622
  82  1372.81
  83  1035.062
  84  1207.931
  85  1483.912
  86  1162.651
  87  1252.37
  88  1596.608
  89  1697.018
  90  1822.456
  91  1709.781
  92  1417.271
  93  1385.25
  94  1284.594
  95  1119.563
  96  760.4166
  97  1147.728
  98  1251.543
  99  1203.631
 100  1474.123
 101  1293.602
 102  1162.747
 103  1309.824
 104  1306.987
 105  1607.944
 106  1162.07
 107  1024.377
 108  847.2195
 109  531.0681
 110  987.1203
 111  1337.525
 112  1464.778
 113  1225.371
 114  536.916
 115  523.8113
 116  853.0927
 117  945.1813
 118  857.6234
 119  702.754
 120  866.6711
 121  1187.288
 122  1025.928
 123  859.4109
 124  1002.351
 125  1110.306
 126  1013.994
 127  860.921
 128  1244.134
 129  1266.893
 130  1135.09
 131  1005.034
 132  1056.107
 133  1323.138
 134  1511.784
 135  1421.73
 136  1252.212
 137  1739.046
 138  1717.598
 139  1411.642
 140  1743.553
 141  1534.409
 142  1663.198
 143  1788.644
 144  1049.856
 145  1171.03
 146  1146.678
 147  1361.92
 148  1000.982
 149  1254.997
 150  1406.855
 151  1560.438
 152  1425.532
 153  1503.674
 154  1550.033
 155  1640.818
 156  1500.076
 157  1301.609
 158  1392.132
 159  1440.363
 160  1428.826
 161  1431.834
 162  1491.085
 163  1383.372
 164  1276.231
 165  1362.591
 166  1449.532
 167  1312.929
 168  1265.645
 169  1017.866
 170  1025.472
 171  928.5883
 172  838.8633
 173  891.9302
 174  332.8168
 175  420.2425
 176  1061.124
 177  875.2931
 178  642.3135
 179  908.438
 180  1081.85
 181  837.9322
 182  983.8151
 183  1060.527
 184  968.5291
 185  512.003
 186  776.4921
 187  942.2308
 188  993.0844
 189  1032.145
 190  694.6329
 191  770.4084
 192  621.0269
 193  453.8311
 194  1044.624
 195  1228.386
 196  1111.794
 197  929.627
 198  941.4844
 199  878.9172
 200  616.9705
 201  511.6491
 202  472.3105
 203  267.0419
 204  239.6459
 205  131.4285
 206  -206.5997
 207  157.356
 208  -90.17931
 209  196.1942
 210  122.2776
 211  308.1151
 212  140.5891
 213  328.1942
 214  542.3754
 215  258.1239
 216  550.4406
 217  622.844
 218  477.6712
 219  577.3894
 220  585.5651
 221  307.672
 222  181.4703
 223  445.6562
 224  457.1329
 225  563.5984
 226  439.6118
 227  255.3619
 228  392.6275
 229  230.9333
 230  372.6071
 231  235.3281
 232  258.0717
 233  388.4426
 234  426.3223
 235  456.6324
 236  416.1346
 237  445.578
 238  606.1284
 239  597.5236
 240  217.1462
 241  287.4546
 242  292.916
 243  504.4574
 244  747.1104
 245  644.0629
 246  582.7316
 247  614.9315
 248  480.5043
 249  203.19
 250  297.0549
 251  599.4082
 252  351.5326
 253  344.982
 254  14.11035
 255  197.7026
 256  -26.27805
 257  220.5008
 258  530.4933
 259  299.0335
 260  56.21985
 261  143.2621
 262  581.4783
 263  570.8785
 264  255.0056
 265  79.61227
 266  -44.2518
 267  176.1007
 268  33.99429
 269  281.5702
 270  244.0608
 271  331.671
 272  623.1121
 273  656.6189
 274  459.1335
 275  312.2098
 276  -3.001192
 277  47.99595
 278  182.4194
 279  421.5334
 280  215.6318
 281  295.9193
 282  93.66182
 283  188.5563
 284  123.9417
 285  107.0724
 286  316.4539
 287  473.2608
 288  394.7941
 289  5.921846
 290  -54.56094
 291  -178.5711
 292  201.604
 293  264.6095
 294  175.4003
 295  402.9481
 296  175.7599
 297  298.0208
 298  490.8591
 299  640.2044
 300  394.9201
 301  202.6461
 302  466.0624
 303  361.9758
 304  314.3983
 305  282.3719
 306  748.8691
 307  527.4556
 308  363.7518
 309  270.9338
 310  248.6184
 311  352.8107
 312  348.1687
 313  733.0139
 314  813.9567
 315  945.0169
 316  925.1631
 317  1163.896
 318  710.6227
 319  236.7202
 320  775.5853
 321  1170.356
 322  848.6019
 323  774.6631
 324  614.6257
 325  670.649
 326  449.4656
 327  679.0381
 328  787.7617
 329  753.2172
 330  554.4187
 331  651.3964
 332  1295.418
 333  1303.713
 334  955.3175
 335  986.974
 336  1409.073
 337  1450.959
 338  1386.551
 339  1478.74
 340  1131.341
 341  1121.075
 342  1331.671
 343  1399.99
 344  1591.191
 345  1824.384
 346  1685.388
 347  1178.431
 348  1514.782
 349  1576.474
 350  1428.81
 351  1441.802
 352  1524.024
 353  1495.815
 354  1460.291
 355  1203.684
 356  1168.395
 357  1116.689
 358  1348.565
 359  1163.353
 360  950.0861
 361  1218.225
 362  1273.421
 363  1160.343
 364  859.7639
 365  1065.77
 366  1243.741
 367  1140.952
 368  847.6334
 369  1036.158
 370  1456.548
 371  1523.799
 372  1065.811
 373  1082.732
 374  1054.895
 375  1134.009
 376  1113.55
 377  1000.669
 378  1187.541
 379  1344.292
 380  1083.208
 381  669.1946
 382  1043.486
 383  832.0147
 384  698.5416
 385  559.1087
 386  667.827
 387  702.4091
 388  713.965
 389  746.5811
 390  625.0411
 391  906.264
 392  1025.066
 393  509.7244
 394  463.2099
 395  427.1157
 396  626.2064
 397  663.1355
 398  436.9032
 399  415.4794
 400  527.5911
 401  339.6392
 402  267.0034
 403  546.3679
 404  568.7961
 405  450.0507
 406  356.949
 407  323.0067
 408  275.063
 409  350.0736
 410  226.2941
 411  376.2272
 412  87.63673
 413  224.0543
 414  52.6124
 415  102.2263
 416  -158.5686
 417  81.40867
 418  280.9885
 419  132.146
 420  -21.43036
 421  -87.75516
 422  90.29966
 423  355.1632
 424  553.7314
 425  382.8722
 426  186.4035
 427  275.7092
 428  221.5853
 429  146.5047
 430  55.1061
 431  53.42364
 432  3.949052
 433  258.2507
 434  295.2694
 435  506.5227
 436  805.7467
 437  813.2906
 438  552.5154
 439  589.558
 440  549.4948
 441  640.0366
 442  991.6609
 443  1213.314
 444  927.9993
 445  754.0662
 446  747.0782
 447  979.0659
 448  718.5527
 449  716.0294
 450  821.7953
 451  1001.048
 452  1226.437
 453  1364.059
 454  1558.435
 455  1287.977
 456  940.5412
 457  1222.803
 458  1463.456
 459  1143.618
 460  1321.398
 461  1106.822
 462  1149.563
 463  1266.117
 464  1101.109
 465  909.6404
 466  496.617
 467  897.2023
 468  617.5231
 469  694.3029
 470  786.9253
 471  718.5694
 472  679.3593
 473  681.6849
 474  855.6879
 475  779.4244
 476  791.3604
 477  364.7839
 478  686.9801
 479  981.7147
 480  1072.846
 481  775.8777
 482  1228.686
 483  1114.681
 484  1006.675
 485  892.5447
 486  933.6486
 487  725.3364
 488  699.5661
 489  1068.893
 490  932.7676
 491  501.9683
 492  413.448
 493  267.1322
 494  366.5556
 495  443.2224
 496  887.976
 497  924.18
 498  1397.762
 499  1852.663
 500  2031.4
 501  2684.693
 502  2925.581
 503  2759.958
 504  2573.458
 505  1660.819
 506  1021.173
 507  916.0432
 508  906.1969
 509  929.2454
 510  949.2703
 511  1322.997
