# Input file       =  1209359564.108885_cleaned.dat
# Candidate        =  PSR_0332+5434
# Telescope        =  AR
# Epoch_topo       =  58241.217397093576
# Epoch_bary       =  N/A
# T_sample         =  0.002
# Data Folded      =  7143424
# Data Avg         =  0.466412240939444
# Data StdDev      =  7.61540919471306 
# Profile Bins     =  512
# Profile Avg      =  6507.31583522888 
# Profile StdDev   =  899.521354329702 
# Reduced chi-sqr  =  1.203
# Prob(Noise)      <  0.00109   (~3.1 sigma)
# P_topo (ms)      =  714.544715549471  +/- 4.55e-05
# P'_topo (s/s)    =  -0                +/- 2.47e-11
# P''_topo (s/s^2) =  0                 +/- 1.12e-14
# P_bary (ms)      =  N/A
# P'_bary (s/s)    =  N/A
# P''_bary (s/s^2) =  N/A
# P_orb (s)        =  N/A
# asin(i)/c (s)    =  N/A
# eccentricity     =  N/A
# w (rad)          =  N/A
# T_peri           =  N/A
######################################################
   0  6803.974
   1  6689.111
   2  6326.316
   3  6265.689
   4  6245.054
   5  6957.912
   6  7593.365
   7  6927.747
   8  6990.132
   9  6672.268
  10  6220.221
  11  6410.53
  12  6396.273
  13  6371.803
  14  6602.352
  15  6483.037
  16  6382.968
  17  6937.771
  18  6133.567
  19  6632.161
  20  6418.869
  21  7488.868
  22  8226.501
  23  7579.568
  24  7769.871
  25  7278.451
  26  7128.714
  27  6083.388
  28  5584.426
  29  6197.196
  30  6587.972
  31  6841.504
  32  6511.943
  33  6706.106
  34  6224.711
  35  6560.409
  36  6332.701
  37  6931.455
  38  7844.953
  39  7898.922
  40  7828.664
  41  7244.945
  42  7215.963
  43  6497.497
  44  5455.279
  45  5859.958
  46  6269.434
  47  6338.356
  48  6075.165
  49  6642.282
  50  6597.27
  51  6766.949
  52  5887.339
  53  6069.622
  54  6509.044
  55  7077.966
  56  7276.3
  57  7154.153
  58  7643.459
  59  7003.406
  60  5840.476
  61  5512.482
  62  5102.559
  63  5496.885
  64  5273.74
  65  6064.075
  66  6784.026
  67  6619.981
  68  6369.36
  69  5495.63
  70  5576.63
  71  6499.52
  72  6583.926
  73  6890.034
  74  7018.219
  75  7306.89
  76  6704.789
  77  5478.87
  78  5294.814
  79  5727.195
  80  5766.891
  81  5820.374
  82  6200.547
  83  6450.455
  84  6286.568
  85  5522.17
  86  6459.359
  87  6966.059
  88  7521.692
  89  8097.856
  90  6878.758
  91  6746.118
  92  6502.717
  93  5911.919
  94  6075.03
  95  6224.484
  96  6392.927
  97  6532.957
  98  6511.209
  99  6231.538
 100  6856.677
 101  6088.156
 102  5997.86
 103  6103.687
 104  7195.585
 105  7972.913
 106  7304.562
 107  7037.597
 108  7149.327
 109  6400.425
 110  5886.826
 111  5843.022
 112  6237.581
 113  5900.867
 114  5974.847
 115  6465.333
 116  6962.521
 117  5822.679
 118  5975.764
 119  5931.659
 120  7249.364
 121  7715.709
 122  7366.178
 123  7623.377
 124  7280.423
 125  7167.809
 126  5897.436
 127  5318.107
 128  6323.678
 129  6651.828
 130  6348.396
 131  6647.957
 132  6914.507
 133  6041.256
 134  5930.078
 135  6010.75
 136  6268
 137  7161.976
 138  7669.084
 139  7434.381
 140  7070.463
 141  7091.527
 142  6363.051
 143  5140.834
 144  5330.692
 145  5592.781
 146  5991.547
 147  5874.889
 148  6170.774
 149  6819.093
 150  6795.512
 151  6511.093
 152  6282.052
 153  6864.599
 154  6967.176
 155  7122.205
 156  6895.367
 157  7164.638
 158  6872.243
 159  5824.023
 160  5475.212
 161  5277.432
 162  6083.625
 163  5544.955
 164  5953.184
 165  6692.235
 166  5808.846
 167  6136.925
 168  5380.095
 169  6301.865
 170  7495.555
 171  7490.645
 172  7493.404
 173  6586.164
 174  6907.765
 175  6606.596
 176  6059.868
 177  5861.528
 178  6212.516
 179  6217.938
 180  6075.436
 181  6404.383
 182  6527.523
 183  6378.93
 184  5963.023
 185  6265.132
 186  6873.222
 187  7085.237
 188  7752.225
 189  7538.9
 190  7420.514
 191  7050.407
 192  6278.353
 193  6038.801
 194  6170.396
 195  5867.14
 196  5873.282
 197  6360.105
 198  6386.825
 199  6934.296
 200  5675.958
 201  6363.978
 202  6674.611
 203  7252.418
 204  7642.553
 205  7089.478
 206  7366.579
 207  6904.26
 208  6672.394
 209  5883.698
 210  5158.884
 211  5718.419
 212  5938.798
 213  6761.666
 214  7230.722
 215  6570.007
 216  6030.07
 217  5722.584
 218  5714.481
 219  6367.03
 220  7218.546
 221  7188.895
 222  7096.771
 223  7445.231
 224  7211.149
 225  6134.554
 226  5420.406
 227  5587.521
 228  5668.515
 229  6194.711
 230  6150.202
 231  6187.748
 232  6193.744
 233  6709.266
 234  6331.677
 235  6043.132
 236  6512.844
 237  6894.792
 238  7259.405
 239  6734.757
 240  6837.893
 241  6530.004
 242  5458.393
 243  5054.113
 244  4897.987
 245  5442.518
 246  6113.149
 247  6833.352
 248  6922.11
 249  6307.037
 250  6142.784
 251  6439.312
 252  6690.477
 253  8065.515
 254  7744.636
 255  7036.257
 256  7021.795
 257  6205.341
 258  6346.825
 259  6061.602
 260  6447.099
 261  6521.176
 262  5567.142
 263  5798.852
 264  6415.674
 265  6126.811
 266  6119.281
 267  6683.749
 268  7597.442
 269  7144.347
 270  7215.868
 271  7453.727
 272  6548.257
 273  6966.814
 274  6838.845
 275  6108.543
 276  5922.807
 277  6053.026
 278  6035.569
 279  6241.777
 280  6418.234
 281  6772.628
 282  7098.77
 283  6257.651
 284  6258.68
 285  7064.497
 286  7273.305
 287  8182.015
 288  7634.546
 289  7661.056
 290  7236.1
 291  6268.847
 292  6011.263
 293  5911.222
 294  6284.007
 295  6808.696
 296  7590.003
 297  7906.917
 298  8130.692
 299  7801.471
 300  8330.429
 301  8164.23
 302  9129.997
 303  8899.588
 304  7934.797
 305  7957.644
 306  7090.123
 307  6503.292
 308  5596.936
 309  5613.293
 310  6252.898
 311  6379.606
 312  6866.215
 313  6221.131
 314  6370.114
 315  6599.882
 316  5916.517
 317  5622.363
 318  6202.309
 319  6777.749
 320  6992.411
 321  7399.855
 322  7533.327
 323  7268.116
 324  6160.965
 325  5083.113
 326  5301.983
 327  5590.051
 328  5670.558
 329  6056.43
 330  6977.422
 331  7007.97
 332  6254.841
 333  6022.582
 334  6356.838
 335  7360.101
 336  7567.101
 337  7147.942
 338  6639.826
 339  6521.97
 340  6325.228
 341  5890.259
 342  5651.074
 343  5433.018
 344  5523.418
 345  5306.745
 346  5586.402
 347  6616.704
 348  6263.97
 349  6640.015
 350  6343.326
 351  6755.38
 352  7162.018
 353  7362.703
 354  7634.821
 355  6848.568
 356  7427.009
 357  6821.575
 358  5612.101
 359  5301.071
 360  5587.489
 361  6189.264
 362  6452.112
 363  6631.388
 364  6319.504
 365  6391.193
 366  6097.657
 367  6374.374
 368  6546.028
 369  7021.226
 370  7434.473
 371  7069.708
 372  7313.768
 373  6600.862
 374  5538.592
 375  5532.002
 376  6143.117
 377  6412.991
 378  6056.657
 379  6173.259
 380  5897.247
 381  6589.746
 382  6270.404
 383  6339.925
 384  6286.874
 385  7481.057
 386  7696.258
 387  6712.123
 388  7325.983
 389  6840.477
 390  5738.476
 391  4852.93
 392  5092.542
 393  5431.23
 394  6302.475
 395  7088.84
 396  6782.377
 397  6414.403
 398  5540.173
 399  5089.463
 400  5360.875
 401  6713.318
 402  7259.149
 403  7352.168
 404  7584.74
 405  7209.376
 406  6765.646
 407  5252.001
 408  4684.752
 409  5394.88
 410  5266.753
 411  5538.25
 412  5753.609
 413  6128.527
 414  6252.827
 415  5865.749
 416  6299.981
 417  6308.741
 418  7114.015
 419  6808.114
 420  6758.178
 421  7036.658
 422  6768.57
 423  6471.064
 424  5369.043
 425  5491.702
 426  5328.132
 427  5786.654
 428  6205.126
 429  6631.485
 430  7540.761
 431  6622.971
 432  6340.775
 433  6037.45
 434  6215.417
 435  7037.95
 436  6950.69
 437  7001.84
 438  7281.47
 439  6658.359
 440  5921.073
 441  5683.357
 442  5830.833
 443  6317.666
 444  6041.1
 445  6163.861
 446  6359.234
 447  5748.842
 448  6459.692
 449  5990.374
 450  6775.715
 451  7622.721
 452  7555.398
 453  7630.865
 454  7054.976
 455  7251.86
 456  5969.964
 457  5326.383
 458  5621.309
 459  6338.948
 460  6610.089
 461  6129.55
 462  6395.669
 463  6189.42
 464  6553.647
 465  6011.608
 466  6521.618
 467  7130.988
 468  7779.719
 469  7816.932
 470  7131.264
 471  7064.28
 472  6640.171
 473  5749.847
 474  5417.978
 475  5561.993
 476  6042.742
 477  6516.403
 478  6951.806
 479  6941.6
 480  7322.745
 481  6504.511
 482  5578.769
 483  6136.196
 484  7164.238
 485  8303.94
 486  7171.83
 487  7812.055
 488  7440.297
 489  6030.437
 490  5282.99
 491  5042.19
 492  5806.604
 493  5574.001
 494  6086.099
 495  6641.634
 496  6518.323
 497  6352.214
 498  6017.737
 499  5991.554
 500  6638.578
 501  7046.168
 502  6993.748
 503  6889.646
 504  7856.756
 505  7682.957
 506  6330.614
 507  5722.177
 508  5810.826
 509  5650.917
 510  5807.992
 511  6215.377
