# Input file       =  1209647534.116264_cleaned.dat
# Candidate        =  PSR_0332+5434
# Telescope        =  AR
# Epoch_topo       =  58244.550383290094
# Epoch_bary       =  N/A
# T_sample         =  0.002
# Data Folded      =  7340032
# Data Avg         =  0.237414397957245
# Data StdDev      =  4.37339954997161 
# Profile Bins     =  256
# Profile Avg      =  6807.1325039962  
# Profile StdDev   =  740.539365961388 
# Reduced chi-sqr  =  1.450
# Prob(Noise)      <  3.34e-06   (~4.5 sigma)
# P_topo (ms)      =  714.541989036364  +/- 0.00048
# P'_topo (s/s)    =  -0                +/- 2.53e-10
# P''_topo (s/s^2) =  0                 +/- 1.12e-13
# P_bary (ms)      =  N/A
# P'_bary (s/s)    =  N/A
# P''_bary (s/s^2) =  N/A
# P_orb (s)        =  N/A
# asin(i)/c (s)    =  N/A
# eccentricity     =  N/A
# w (rad)          =  N/A
# T_peri           =  N/A
######################################################
   0  6589.492
   1  6314.389
   2  6728.433
   3  6445.549
   4  5873.849
   5  5887.598
   6  5616.806
   7  6134.308
   8  5838.665
   9  6166.971
  10  5506.467
  11  5378.012
  12  6097.049
  13  6195.863
  14  6529.534
  15  6265.78
  16  6663.4
  17  7422.059
  18  7873.79
  19  7796.965
  20  7310.763
  21  6468.694
  22  6768.373
  23  6171.024
  24  6543.664
  25  6371.308
  26  6202.471
  27  6459.534
  28  6448.516
  29  7371.126
  30  6466.41
  31  6780.863
  32  7542.983
  33  7153.876
  34  7352.693
  35  6937.63
  36  7165.583
  37  6622.713
  38  6338.67
  39  6707.71
  40  7036.029
  41  7074.065
  42  6997.776
  43  7516.746
  44  7223.557
  45  7510.578
  46  7322.499
  47  7670.012
  48  7456.766
  49  7333.968
  50  7017.665
  51  6875.189
  52  6158.918
  53  6483.983
  54  6074.826
  55  6517.839
  56  6071.292
  57  5468.465
  58  6389.004
  59  6624.92
  60  6811.428
  61  6693.536
  62  6412.001
  63  6155.659
  64  6622.961
  65  6419.15
  66  6171.337
  67  6373.117
  68  6240.934
  69  6238.286
  70  6444.585
  71  5660.764
  72  5640.204
  73  7097.414
  74  7013.281
  75  7100.167
  76  6878.805
  77  6697.506
  78  6100.701
  79  6784.37
  80  6571.64
  81  6970.643
  82  6979.187
  83  6783.469
  84  6171.722
  85  6059.232
  86  6280.081
  87  6786.904
  88  6379.891
  89  6175.758
  90  6349.993
  91  6515.941
  92  6078.358
  93  6512.597
  94  5815.667
  95  5705.612
  96  5673.812
  97  5414.198
  98  5572.223
  99  5438.32
 100  5440.756
 101  5666.387
 102  6301.543
 103  6084.058
 104  6705.014
 105  6543.576
 106  6509.126
 107  6817.642
 108  7349.529
 109  7040.118
 110  6936.187
 111  6540.775
 112  6717.672
 113  6934.698
 114  7433.563
 115  7435.297
 116  7666.432
 117  7445.212
 118  7508.01
 119  7476.878
 120  8270.215
 121  7929.047
 122  8196.731
 123  8327.658
 124  8163.69
 125  7616.01
 126  8032.769
 127  8717.497
 128  8279.813
 129  6992.831
 130  7317.649
 131  7470.771
 132  7100.68
 133  7214.73
 134  6713.59
 135  6740.782
 136  6606.926
 137  7143.024
 138  6595.966
 139  7013.87
 140  6416.798
 141  6859.256
 142  6684.102
 143  6318.645
 144  6957.629
 145  7838.291
 146  7393.2
 147  8515.955
 148  8373
 149  9545.906
 150  11842.87
 151  9978.579
 152  7471.99
 153  7193.757
 154  7992.804
 155  7381.458
 156  6883.14
 157  5990.675
 158  5821.144
 159  6420.548
 160  6872.137
 161  6766.435
 162  6955.149
 163  7109.285
 164  6950.486
 165  6675.273
 166  7600.101
 167  7481.996
 168  7866.823
 169  6978.613
 170  6804.314
 171  7252.898
 172  7685.261
 173  6831.19
 174  7398.292
 175  7162.816
 176  6810.565
 177  6500.65
 178  6849.894
 179  6405.776
 180  6280.21
 181  5769.438
 182  6488.795
 183  6061.939
 184  5416.037
 185  6135.465
 186  5748.006
 187  7019.879
 188  7150.378
 189  6457.238
 190  5749.775
 191  5915.28
 192  5669.771
 193  6093.862
 194  6353.47
 195  5762.373
 196  6554.343
 197  7380.646
 198  7358.551
 199  6334.767
 200  6482.662
 201  6350.063
 202  6775.885
 203  5904.885
 204  6114.545
 205  6435.34
 206  6733.348
 207  7101.789
 208  8047.267
 209  7373.283
 210  7904.833
 211  6892.834
 212  7501.629
 213  6938.375
 214  6747.545
 215  6786.021
 216  6641.764
 217  7277.037
 218  7090.268
 219  8126.148
 220  7298.282
 221  7161.79
 222  6515.037
 223  6976.48
 224  6813.49
 225  6109.675
 226  6828.749
 227  6831.611
 228  6534.683
 229  6948.688
 230  6589.525
 231  6251.777
 232  7091.089
 233  7211.729
 234  6955.396
 235  6295.817
 236  7200.558
 237  7330.053
 238  7807.409
 239  7163.777
 240  7499.479
 241  7517.927
 242  7342.193
 243  7401.75
 244  6456.196
 245  5736.205
 246  5840.562
 247  6450.992
 248  6240.879
 249  6803.282
 250  6717.529
 251  6658.665
 252  7257.061
 253  6517.004
 254  6234.055
 255  6151.225
