# Input file       =  1209906091.119043_cleaned.dat
# Candidate        =  PSR_0332+5434
# Telescope        =  AR
# Epoch_topo       =  58247.542941192631
# Epoch_bary       =  N/A
# T_sample         =  0.002
# Data Folded      =  7340032
# Data Avg         =  0.0788968482410097
# Data StdDev      =  1.00013710296559 
# Profile Bins     =  512
# Profile Avg      =  1130.89471447411 
# Profile StdDev   =  119.749452131133 
# Reduced chi-sqr  =  1.470
# Prob(Noise)      <  2.02e-11   (~6.6 sigma)
# P_topo (ms)      =  714.53917663511   +/- 0.000355
# P'_topo (s/s)    =  -0                +/- 1.88e-10
# P''_topo (s/s^2) =  0                 +/- 8.28e-14
# P_bary (ms)      =  N/A
# P'_bary (s/s)    =  N/A
# P''_bary (s/s^2) =  N/A
# P_orb (s)        =  N/A
# asin(i)/c (s)    =  N/A
# eccentricity     =  N/A
# w (rad)          =  N/A
# T_peri           =  N/A
######################################################
   0  1192.236
   1  1064.843
   2  1066.064
   3  1079.029
   4  1054.889
   5  1065.242
   6  1030.831
   7  1009.258
   8  1001.804
   9  1087.308
  10  1031.3
  11  1037.388
  12  1114.496
  13  984.6291
  14  879.3397
  15  1020.838
  16  1150.38
  17  1138.794
  18  1102.055
  19  1101.759
  20  1057.535
  21  981.2141
  22  1054.377
  23  1058.472
  24  1140.164
  25  1182.024
  26  1057.938
  27  1086.183
  28  1075.449
  29  1115.771
  30  1119.807
  31  1082.745
  32  1038.961
  33  907.2651
  34  938.1027
  35  1104.566
  36  1051.652
  37  1031.803
  38  1071.854
  39  1103.57
  40  1136.41
  41  1056.194
  42  1080.625
  43  1226.16
  44  1344.998
  45  1564.786
  46  1795.971
  47  1717.129
  48  1605.59
  49  1428.412
  50  1178.154
  51  1066.745
  52  1091.36
  53  1131.502
  54  1192.419
  55  1224.245
  56  1180.651
  57  1078.874
  58  1092.946
  59  1149.311
  60  1064.749
  61  1080.101
  62  1106.783
  63  1068.278
  64  990.4797
  65  1070.52
  66  1114.865
  67  1086.794
  68  949.5049
  69  1059.341
  70  1088.921
  71  1039.402
  72  1045.622
  73  1149.945
  74  1248.914
  75  1251.948
  76  1195.781
  77  1091.479
  78  1103.264
  79  1054.354
  80  945.0231
  81  1058.551
  82  1048.047
  83  988.1116
  84  1128.26
  85  1082.644
  86  1120.846
  87  1128.691
  88  1131.745
  89  1083.242
  90  1090.765
  91  957.342
  92  943.9033
  93  1084.525
  94  1099.617
  95  1153.043
  96  1105.843
  97  1169.013
  98  1120.915
  99  1055.165
 100  1155.778
 101  1049.152
 102  1067.513
 103  1091.53
 104  1050.322
 105  1116.308
 106  1167.808
 107  1178.562
 108  1028.309
 109  1092.653
 110  1102.059
 111  1186.425
 112  1129.577
 113  1026.46
 114  1022.332
 115  937.7726
 116  964.5049
 117  1022.339
 118  1008.448
 119  973.3571
 120  1041.816
 121  1052.747
 122  1151.073
 123  1092.482
 124  1042.007
 125  971.3268
 126  1007.667
 127  1158.647
 128  1167.464
 129  1204.93
 130  1147.717
 131  1014.716
 132  994.0425
 133  1007.12
 134  1017.502
 135  1123.675
 136  1116.927
 137  1142.369
 138  1074.94
 139  1035.338
 140  969.1323
 141  1077.72
 142  1174.148
 143  1104.816
 144  1050.92
 145  937.6229
 146  1023.428
 147  998.8055
 148  924.0643
 149  969.9647
 150  933.8469
 151  1121.013
 152  1038.977
 153  946.6907
 154  994.5163
 155  984.1573
 156  1077.491
 157  1136.077
 158  1102.795
 159  1130.54
 160  1145.854
 161  1020.726
 162  1062.976
 163  1115.651
 164  1138.416
 165  1120.488
 166  1147.616
 167  1118.381
 168  1160.297
 169  1188.714
 170  1062.657
 171  1090.833
 172  1142.156
 173  1163.375
 174  1235.694
 175  1212.71
 176  1208.004
 177  1278.258
 178  1159.479
 179  1129.078
 180  1098.656
 181  1115.468
 182  1103.074
 183  1122.866
 184  1104.254
 185  987.4968
 186  1088.166
 187  1023.23
 188  1007.737
 189  1017.464
 190  1006.02
 191  1004.712
 192  1077.945
 193  1130.357
 194  932.2523
 195  1031.021
 196  1034.365
 197  1047.784
 198  979.0668
 199  1132.143
 200  1149.335
 201  1139.182
 202  1097.555
 203  1165.552
 204  1122.394
 205  990.6541
 206  1090.653
 207  1180.862
 208  1148.786
 209  1005.805
 210  1024.489
 211  1059.391
 212  1117.121
 213  1125.76
 214  1032.327
 215  1078.941
 216  1135.378
 217  1191.464
 218  1178.436
 219  1239.57
 220  1191.436
 221  1044.505
 222  1022.418
 223  1068.384
 224  1262.714
 225  1271.714
 226  1155.833
 227  1116.541
 228  1153.788
 229  1188.455
 230  1164.398
 231  1175.627
 232  1088.508
 233  1210.917
 234  1141.227
 235  1190.196
 236  1142.08
 237  1284.056
 238  1351.574
 239  1234.342
 240  1225.877
 241  1173.947
 242  1166.038
 243  1154.958
 244  1263.846
 245  1304.377
 246  1209.285
 247  1162.325
 248  1132.261
 249  1210
 250  1149.338
 251  1229.755
 252  1246.187
 253  1168.716
 254  1303.596
 255  1240.439
 256  1241.412
 257  1335.05
 258  1326.61
 259  1307.234
 260  1270.825
 261  1322.492
 262  1364.925
 263  1392.616
 264  1350.34
 265  1207.878
 266  1139.651
 267  1201.786
 268  1252.063
 269  1280.344
 270  1262.332
 271  1225.637
 272  1157.797
 273  1232.216
 274  1235.907
 275  1142.611
 276  1117.678
 277  1254.094
 278  1270.691
 279  1257.627
 280  1207.005
 281  1156.402
 282  1138.593
 283  1295.328
 284  1284.299
 285  1356.02
 286  1179.072
 287  1209.965
 288  1254.699
 289  1162.14
 290  1187.422
 291  1199.994
 292  1128.347
 293  1175.834
 294  1191.403
 295  1093.302
 296  1094.163
 297  1125.769
 298  1181.134
 299  1137.76
 300  1249.484
 301  1278.728
 302  1172.867
 303  1145.467
 304  1167.524
 305  1249.616
 306  1287.156
 307  1210.491
 308  1175.952
 309  1179.078
 310  1181.704
 311  1261.489
 312  1369.307
 313  1297.557
 314  1140.432
 315  1008.352
 316  1156.921
 317  1316.639
 318  1251.675
 319  1206.408
 320  1305.866
 321  1252.011
 322  1339.067
 323  1248.405
 324  1086.226
 325  1044.066
 326  1100.125
 327  1225.674
 328  1206.758
 329  1215.247
 330  1229.132
 331  1251.332
 332  1171.143
 333  1228.777
 334  1206.069
 335  1162.518
 336  1131.542
 337  1180.263
 338  1137.253
 339  1222.708
 340  1257.856
 341  1341.569
 342  1316.774
 343  1225.599
 344  1308.075
 345  1414.046
 346  1424.647
 347  1280.809
 348  1234.848
 349  1255.145
 350  1132.203
 351  1227.178
 352  1369.035
 353  1247.849
 354  1172.568
 355  1130.631
 356  1215.114
 357  1278.281
 358  1190.539
 359  1162.147
 360  1183.872
 361  1261.579
 362  1167.417
 363  1164.888
 364  1151.79
 365  1170.243
 366  1197.234
 367  1195.329
 368  1219.117
 369  1202.257
 370  1190.393
 371  1136.466
 372  1052.197
 373  1123.257
 374  1207.709
 375  1191.161
 376  1111.221
 377  1126.81
 378  1205.562
 379  1263.859
 380  1075.268
 381  1069.596
 382  1110.398
 383  1187.503
 384  1169.932
 385  1225.512
 386  1242.579
 387  1113.964
 388  1145.302
 389  1242.677
 390  1126.405
 391  1060.361
 392  1063.417
 393  1152.282
 394  1143.502
 395  1126.478
 396  1142.493
 397  1082.512
 398  1109.475
 399  1048.415
 400  1064.873
 401  1101.687
 402  1105.451
 403  1162.296
 404  1062.703
 405  993.5486
 406  1106.188
 407  1093.492
 408  1168.863
 409  1086.366
 410  1072.683
 411  1182.662
 412  1045.518
 413  1026.882
 414  1101.383
 415  1066.779
 416  1064.312
 417  1100.876
 418  1186.522
 419  1102.918
 420  1131.646
 421  1144.269
 422  1144.742
 423  1088.092
 424  1108.694
 425  1170.583
 426  1204.717
 427  1174.594
 428  1110.351
 429  1065.931
 430  1129.431
 431  1207.53
 432  1086.172
 433  1085.353
 434  1072.236
 435  1147.782
 436  1107.605
 437  1118.377
 438  1065.749
 439  1083.589
 440  1138.538
 441  1071.938
 442  1151.408
 443  1202.853
 444  1199.94
 445  1122.118
 446  1002.733
 447  975.6874
 448  912.2106
 449  1075.164
 450  1033.661
 451  1044.578
 452  972.6391
 453  962.3809
 454  1063.65
 455  1025.359
 456  1037.621
 457  990.848
 458  1022.076
 459  1032.026
 460  1036.587
 461  949.0978
 462  912.5974
 463  1029.334
 464  1097.405
 465  1094.566
 466  1103.543
 467  1107.562
 468  1060.031
 469  1027.307
 470  1111.898
 471  1117.061
 472  1029.043
 473  1042.103
 474  1106.54
 475  972.306
 476  960.3521
 477  1119.334
 478  1065.625
 479  1037.814
 480  1053.055
 481  1033.678
 482  1035.331
 483  1104.776
 484  1116.548
 485  1105.548
 486  1090.86
 487  1067.12
 488  1071.698
 489  1104.999
 490  1034.355
 491  1065.683
 492  1183.71
 493  1192.986
 494  1210.839
 495  1050.286
 496  955.405
 497  1035.033
 498  1075.96
 499  1119.934
 500  1078.636
 501  1128.478
 502  1169.59
 503  1112.793
 504  1128.504
 505  1120.28
 506  1237.92
 507  1147.585
 508  1100.602
 509  1107.28
 510  1089.296
 511  1201.559
