# Input file       =  1209546443.111069_cleaned.dat
# Candidate        =  PSR_0332+5434
# Telescope        =  AR
# Epoch_topo       =  58243.380348507744
# Epoch_bary       =  N/A
# T_sample         =  0.002
# Data Folded      =  7340032
# Data Avg         =  0.415522295259247
# Data StdDev      =  5.67899783063782 
# Profile Bins     =  512
# Profile Avg      =  5963.0342033336  
# Profile StdDev   =  679.963653839333 
# Reduced chi-sqr  =  1.390
# Prob(Noise)      <  1.13e-08   (~5.6 sigma)
# P_topo (ms)      =  714.542741231207  +/- 0.000338
# P'_topo (s/s)    =  -0                +/- 1.78e-10
# P''_topo (s/s^2) =  0                 +/- 7.86e-14
# P_bary (ms)      =  N/A
# P'_bary (s/s)    =  N/A
# P''_bary (s/s^2) =  N/A
# P_orb (s)        =  N/A
# asin(i)/c (s)    =  N/A
# eccentricity     =  N/A
# w (rad)          =  N/A
# T_peri           =  N/A
######################################################
   0  6040.996
   1  6459.62
   2  6653.692
   3  6725.046
   4  6476.381
   5  6726.232
   6  6811.278
   7  7254.406
   8  7040.988
   9  6396.747
  10  6715.1
  11  6584.532
  12  6303.031
  13  6257.573
  14  6405.886
  15  6255.314
  16  6238.367
  17  6070.966
  18  6167.153
  19  6463.304
  20  6275.696
  21  6030.113
  22  6008.092
  23  6223.584
  24  6203.429
  25  6155.921
  26  5798.169
  27  5778.747
  28  6084.377
  29  5964.556
  30  5977.392
  31  6105.086
  32  6089.654
  33  6402.069
  34  6519.977
  35  6650.53
  36  6744.412
  37  6670.651
  38  6473.259
  39  6760.336
  40  6709
  41  6898.624
  42  6975.466
  43  6721.266
  44  6392.785
  45  6963.229
  46  7104.027
  47  7073.319
  48  6826.443
  49  6863.09
  50  6607.694
  51  6173.648
  52  5980.534
  53  6273.231
  54  6413.45
  55  6248.625
  56  6307.659
  57  6031.341
  58  6208.44
  59  6016.912
  60  5840.746
  61  5753.093
  62  5754.467
  63  5857.811
  64  6174.383
  65  6117.953
  66  5830.704
  67  5847.659
  68  5708.23
  69  5872.334
  70  5643.959
  71  5827.34
  72  6049.6
  73  6125.814
  74  6027.991
  75  5998.091
  76  5900.022
  77  5989.455
  78  6120.491
  79  5996.3
  80  6316.125
  81  6138.107
  82  6007.056
  83  6285.825
  84  6403.526
  85  6229.305
  86  6524.749
  87  6706.969
  88  6895.33
  89  7137.795
  90  7051.937
  91  7005.729
  92  6859.987
  93  6756.325
  94  6560.018
  95  6719.337
  96  6712.715
  97  6475.83
  98  6448.655
  99  6596.21
 100  6753.415
 101  6280.954
 102  6305.735
 103  6604.157
 104  6576.506
 105  6277.193
 106  6081.812
 107  6253.472
 108  6277.244
 109  6000.213
 110  6004.579
 111  5941.431
 112  6046.938
 113  6213.48
 114  6586.564
 115  6393.075
 116  6338.368
 117  6184.542
 118  6335.343
 119  6321.597
 120  6420.835
 121  6538.089
 122  6522.448
 123  6849.409
 124  6591.63
 125  6661.843
 126  6633.817
 127  6612.859
 128  6536.429
 129  6808.357
 130  6661.562
 131  6572.196
 132  6613.53
 133  6804.018
 134  6878.661
 135  6586.082
 136  6893.216
 137  6630.064
 138  6317.93
 139  6370.427
 140  5985.907
 141  5869.415
 142  5831.245
 143  6130.573
 144  5558.296
 145  5206.558
 146  5542.067
 147  5857.317
 148  5574.912
 149  5385.118
 150  5501.549
 151  5936.311
 152  5849.271
 153  6387.119
 154  6508.591
 155  6168.813
 156  6010.135
 157  5728.39
 158  5843.52
 159  5313.398
 160  5734.628
 161  5785.279
 162  5474.284
 163  5588.005
 164  5937.3
 165  6037.845
 166  5965.946
 167  5957.44
 168  6150.073
 169  6461.096
 170  6333.667
 171  6571.559
 172  6990.171
 173  7115.009
 174  7214.672
 175  7748.419
 176  8266.134
 177  8048.029
 178  7844.875
 179  7477.779
 180  7087.373
 181  6531.856
 182  6117.926
 183  6139.42
 184  6316.293
 185  6456.341
 186  6424.55
 187  6055.416
 188  6211.843
 189  6618.184
 190  6599.911
 191  6180.558
 192  6040.142
 193  6195.472
 194  6268.276
 195  6194.774
 196  5827.738
 197  5987.822
 198  5984.184
 199  6002.448
 200  5950.816
 201  5891
 202  6008.034
 203  6230.166
 204  6341.476
 205  6464.945
 206  6279.007
 207  6653.295
 208  6305.836
 209  6247.578
 210  6227.765
 211  6520.537
 212  6423.317
 213  6593.138
 214  6784.367
 215  6646.065
 216  6436.357
 217  6421.79
 218  6463.058
 219  6191.901
 220  6264.454
 221  5956.159
 222  5916.242
 223  5974.533
 224  5701.085
 225  5276.112
 226  5113.842
 227  5692.096
 228  5920.126
 229  5581.472
 230  5315.064
 231  5514.167
 232  5830.047
 233  5819.891
 234  5535.27
 235  5611.698
 236  5816.564
 237  6173.369
 238  5747.606
 239  5553.339
 240  5555.798
 241  5465.632
 242  5325.052
 243  5520.268
 244  5274.822
 245  5344.21
 246  5438.281
 247  5256.649
 248  5183.121
 249  4887.897
 250  5116.057
 251  5212.392
 252  5028.44
 253  4813.81
 254  4872.467
 255  5043.509
 256  5173.412
 257  5105.592
 258  5205.357
 259  5200.679
 260  5031.719
 261  5369.084
 262  5111.88
 263  4939.644
 264  5241.582
 265  5318.446
 266  5254.613
 267  5079.273
 268  5206.017
 269  5474.82
 270  5295.586
 271  5467.964
 272  5521.098
 273  5064.014
 274  5196.966
 275  5155.495
 276  5590.936
 277  5679.331
 278  5416.553
 279  5397.604
 280  5330.656
 281  5429.139
 282  5394.493
 283  5399.927
 284  5412.31
 285  5203.202
 286  5344.66
 287  5588.58
 288  5590.364
 289  5496.265
 290  5599.861
 291  5944.925
 292  6017.751
 293  5960.209
 294  5702.67
 295  5585.445
 296  6045.664
 297  6194.865
 298  6011.875
 299  5988.433
 300  6569.619
 301  6436.989
 302  6026.755
 303  5749.905
 304  6438.992
 305  6340.023
 306  6063.609
 307  6095.675
 308  5940.241
 309  5498.598
 310  5180.444
 311  5388.596
 312  5542.082
 313  5323.825
 314  5308.382
 315  5230.241
 316  5136.693
 317  5618.66
 318  5465.913
 319  5144.869
 320  5566.183
 321  5637.979
 322  5442.476
 323  5359.593
 324  5286.165
 325  5401.307
 326  5232.411
 327  5308.701
 328  5623.118
 329  5482.378
 330  5548.565
 331  5671.568
 332  5689.336
 333  5909.314
 334  5967.351
 335  6102.613
 336  6081.337
 337  5829.557
 338  5793.851
 339  6168.137
 340  6051.645
 341  6397.918
 342  6562.98
 343  6290.814
 344  6683.821
 345  6566.289
 346  6774.506
 347  6508.99
 348  6597.791
 349  6585.842
 350  6489.543
 351  6424.839
 352  6474.812
 353  6156.671
 354  5915.399
 355  5799.828
 356  5527.089
 357  6003.315
 358  5756.227
 359  5711.212
 360  5906.576
 361  5937.25
 362  6015.549
 363  5808.622
 364  5621.595
 365  5883.111
 366  6032.572
 367  6113.975
 368  6087.052
 369  5608.851
 370  5494.884
 371  5551.437
 372  5475.024
 373  5311.777
 374  5598.867
 375  5612.236
 376  5007.884
 377  4924.282
 378  4872.807
 379  5161.595
 380  5412.356
 381  5229.569
 382  5353.332
 383  5196.075
 384  5568.59
 385  5401.289
 386  5285.751
 387  5300.639
 388  5437.142
 389  5271.1
 390  5699.846
 391  5837.029
 392  5125.477
 393  5296.528
 394  5326.36
 395  5310.726
 396  5404.661
 397  4922.522
 398  4777.359
 399  4874.863
 400  4783.973
 401  4874.505
 402  5228.638
 403  4961.951
 404  4935.98
 405  4685.686
 406  4724.218
 407  5002.446
 408  5127.373
 409  4636.152
 410  4301.515
 411  4553.484
 412  4693.66
 413  4699.596
 414  5021.504
 415  4864.335
 416  5151.82
 417  4895.231
 418  4583.866
 419  4834.991
 420  5195.267
 421  5318.967
 422  5101.759
 423  5350.312
 424  5731.523
 425  5459.829
 426  5428.229
 427  5718.087
 428  5985.237
 429  6106.914
 430  6157.919
 431  6083.73
 432  5949.433
 433  5681.348
 434  5853.61
 435  5802.641
 436  5682.684
 437  5787.342
 438  5933.024
 439  6035.217
 440  6217.088
 441  6163.315
 442  6493.753
 443  6467.131
 444  6163.583
 445  6052.103
 446  6134.841
 447  6267.092
 448  6122.596
 449  5859.531
 450  5923.617
 451  6124.148
 452  6127.134
 453  6090.497
 454  5939.762
 455  6111.646
 456  6212.103
 457  6233.399
 458  6065.418
 459  6206.02
 460  6650.076
 461  6474.187
 462  6511.232
 463  6702.049
 464  6443.595
 465  6140.835
 466  6046.207
 467  6073.034
 468  6510.138
 469  6468.604
 470  6666.947
 471  6568.501
 472  6341.375
 473  6892.867
 474  6884.707
 475  6732.623
 476  6438.27
 477  5716.093
 478  5776.212
 479  5820.563
 480  5771.058
 481  5888.894
 482  5639.976
 483  5672.694
 484  5668.771
 485  5543.31
 486  5320.464
 487  5534.649
 488  5507.269
 489  5615.076
 490  5639.336
 491  5441.913
 492  5661.471
 493  5854.282
 494  5930.688
 495  6060.172
 496  5981.841
 497  6178.536
 498  6010.559
 499  6231.055
 500  5965.801
 501  5800.999
 502  5659.738
 503  5451.43
 504  5962.989
 505  6355.48
 506  6100.585
 507  6485.021
 508  6218.691
 509  6244.875
 510  5984.531
 511  6094.1
