# Input file       =  1209101040.113664_cleaned.dat
# Candidate        =  PSR_0332+5434
# Telescope        =  AR
# Epoch_topo       =  58238.225221222965
# Epoch_bary       =  N/A
# T_sample         =  0.002
# Data Folded      =  7208960
# Data Avg         =  0.2195326387152  
# Data StdDev      =  5.79423638186304 
# Profile Bins     =  1024
# Profile Avg      =  1545.47974712049 
# Profile StdDev   =  486.163710854989 
# Reduced chi-sqr  =  1.542
# Prob(Noise)      <  1.89e-26   (~10.6 sigma)
# P_topo (ms)      =  714.547414357547  +/- 2.19e-05
# P'_topo (s/s)    =  -0                +/- 1.18e-11
# P''_topo (s/s^2) =  0                 +/- 5.29e-15
# P_bary (ms)      =  N/A
# P'_bary (s/s)    =  N/A
# P''_bary (s/s^2) =  N/A
# P_orb (s)        =  N/A
# asin(i)/c (s)    =  N/A
# eccentricity     =  N/A
# w (rad)          =  N/A
# T_peri           =  N/A
######################################################
   0  1659.23
   1  1977.736
   2  2034.51
   3  1986.033
   4  2172.794
   5  1803.383
   6  1599.019
   7  1896.087
   8  1929.072
   9  1564.986
  10  1337.072
  11  1378.031
  12  1480.012
  13  1466.092
  14  1600.989
  15  1508.546
  16  1567.457
  17  1857.029
  18  1988.718
  19  1698.506
  20  1715.046
  21  1772.817
  22  1600.122
  23  1357.678
  24  1155.98
  25  1142.892
  26  1196.565
  27  1173.127
  28  953.2693
  29  962.0079
  30  1170.373
  31  1231.118
  32  1240.17
  33  1418.621
  34  1595.358
  35  1696.959
  36  1759.395
  37  1596.461
  38  1266.687
  39  1408.079
  40  1630.523
  41  1439.079
  42  1134.229
  43  1199.719
  44  1414.554
  45  1371.807
  46  1591.632
  47  1562.277
  48  1517.949
  49  1665.356
  50  1832.107
  51  1585.576
  52  1355.867
  53  1522.099
  54  1725.407
  55  1554.212
  56  1447.451
  57  1365.391
  58  1352.205
  59  1383.682
  60  1189.498
  61  1020.635
  62  1069.334
  63  1005.54
  64  1029.835
  65  1120.717
  66  1380.461
  67  1429.292
  68  1511.131
  69  1687.916
  70  1534.16
  71  1456.312
  72  1961.542
  73  1993.101
  74  1682.394
  75  1534.96
  76  1629.515
  77  1533.371
  78  1369.967
  79  1354.165
  80  1321.471
  81  1351.137
  82  1662.187
  83  1662.144
  84  1552.202
  85  1779.845
  86  2004.565
  87  1854.476
  88  1451.049
  89  1382.841
  90  1367.674
  91  1542.993
  92  1375.404
  93  1128.556
  94  1073.517
  95  1215.706
  96  1128.098
  97  1162.851
  98  1394.96
  99  1706.951
 100  1864.944
 101  1928.432
 102  1773.446
 103  1611.361
 104  1840.192
 105  2085.348
 106  1775.97
 107  1536.002
 108  1682.11
 109  1496.881
 110  1167.849
 111  1209.948
 112  1333.876
 113  1399.099
 114  1640.302
 115  1904.767
 116  1791.035
 117  1775.674
 118  2215.001
 119  2211.707
 120  1808.323
 121  1588.466
 122  1538.519
 123  1446.582
 124  1375.469
 125  1155.967
 126  957.7161
 127  971.735
 128  936.6532
 129  1087.002
 130  1169.804
 131  1370.074
 132  1521.345
 133  1655.938
 134  1920.677
 135  1827.191
 136  1834.2
 137  2179.584
 138  2041.986
 139  1682.386
 140  1633.306
 141  1570.086
 142  1200.273
 143  852.8212
 144  914.1393
 145  981.2581
 146  1132.762
 147  1489.226
 148  1615.629
 149  1475.223
 150  1629.794
 151  1765.621
 152  1675.633
 153  1592.459
 154  1647.422
 155  1656.103
 156  1359.952
 157  1104.698
 158  776.9441
 159  805.068
 160  1026.012
 161  813.6721
 162  547.6808
 163  576.3975
 164  1094.188
 165  1446.233
 166  1574.747
 167  1599.06
 168  1584.408
 169  1665.989
 170  1723.535
 171  1366.829
 172  1283.389
 173  1577.371
 174  1481.332
 175  1043.122
 176  948.9861
 177  1114.219
 178  1180.569
 179  1359.723
 180  1405.85
 181  1323.776
 182  1392.166
 183  1797.216
 184  1801.15
 185  1453.245
 186  1510.363
 187  1579.306
 188  1345.513
 189  1131.218
 190  1012.675
 191  1081.319
 192  1178.38
 193  1037.161
 194  765.308
 195  715.4958
 196  830.8943
 197  964.9921
 198  984.1298
 199  1322.792
 200  1504.183
 201  1487.833
 202  1757.295
 203  1648.297
 204  1468.408
 205  1727.885
 206  1907.033
 207  1686.379
 208  1385.754
 209  1413.01
 210  1390.676
 211  1231.381
 212  1402.021
 213  1317.467
 214  1263.026
 215  1517.646
 216  1801.203
 217  1611.144
 218  1537.011
 219  1720.099
 220  1878.35
 221  1596.917
 222  1538.854
 223  1316.008
 224  1256.725
 225  1092.772
 226  912.5442
 227  858.3395
 228  1030.485
 229  1023.257
 230  976.0947
 231  1095.239
 232  1384.586
 233  1562.505
 234  1593.535
 235  1707.689
 236  1543.847
 237  1663.616
 238  2019.212
 239  1811.885
 240  1338.675
 241  1303.946
 242  1325.068
 243  1420.752
 244  1352.245
 245  1459.095
 246  1177.016
 247  1349.579
 248  1626.528
 249  1726.428
 250  1642.462
 251  1889.729
 252  2015.969
 253  1648.06
 254  1490.126
 255  1491.616
 256  1499.448
 257  1460.963
 258  1249.592
 259  1008.874
 260  854.2319
 261  962.9868
 262  948.1616
 263  1042.325
 264  1389.451
 265  1669.524
 266  1795.67
 267  1963.96
 268  1760.393
 269  1621.265
 270  1905.39
 271  2011.339
 272  1755.488
 273  1475.858
 274  1683.415
 275  1570.903
 276  1368.164
 277  1329.662
 278  1471.261
 279  1638.372
 280  1983.218
 281  2075.243
 282  1789.248
 283  1674.761
 284  1875.54
 285  2021.194
 286  1687.235
 287  1635.791
 288  1464.44
 289  1403.367
 290  1297.145
 291  999.619
 292  977.2828
 293  1120.013
 294  1091.25
 295  1030.02
 296  1251.856
 297  1686.239
 298  1942.633
 299  2068.238
 300  2188.147
 301  2049.866
 302  2061.548
 303  2242.218
 304  1824.444
 305  1406.158
 306  1599.022
 307  1569.557
 308  1181.672
 309  849.2487
 310  1122.855
 311  1471.562
 312  1735.509
 313  2119.034
 314  1967.958
 315  1720.412
 316  1958.002
 317  2249.558
 318  1975.993
 319  1680.873
 320  1563.458
 321  1502.097
 322  1378.585
 323  1151.918
 324  1031.595
 325  1072.573
 326  1156.576
 327  951.4167
 328  960.0598
 329  1182.884
 330  1520.145
 331  1601.685
 332  1831.829
 333  1602.569
 334  1528.201
 335  1819.547
 336  1805.458
 337  1378.75
 338  1097.31
 339  1388.56
 340  1239.026
 341  1016.13
 342  1016.851
 343  1177.672
 344  1211.452
 345  1529.442
 346  1584.932
 347  1143.23
 348  1146.654
 349  1550.594
 350  1678.999
 351  1424.36
 352  1552.735
 353  1774.265
 354  1604.059
 355  1375.897
 356  1038.726
 357  956.8536
 358  1143.443
 359  1052.266
 360  871.2048
 361  759.3757
 362  1014.711
 363  1325.371
 364  1490.576
 365  1572.204
 366  1474.913
 367  1507.088
 368  1756.871
 369  1531.948
 370  1383.495
 371  1659.701
 372  1795.306
 373  1545.016
 374  1408.966
 375  1297.999
 376  1322.559
 377  1348.492
 378  1597.94
 379  1416.941
 380  1282.258
 381  1554.199
 382  1754.413
 383  1550.387
 384  1578.824
 385  1740.769
 386  1706.819
 387  1598.876
 388  1412.232
 389  1332.981
 390  1224.704
 391  1229.96
 392  987.3773
 393  865.931
 394  992.3147
 395  1194.223
 396  1304.904
 397  1390.927
 398  1573.912
 399  1610.965
 400  1902.316
 401  1896.627
 402  1645.858
 403  1469.068
 404  1698.298
 405  1522.786
 406  1116.659
 407  967.087
 408  953.6556
 409  963.8571
 410  1237.585
 411  1398.017
 412  1262.2
 413  1486.078
 414  1822.006
 415  1791.738
 416  1515.118
 417  1646.231
 418  1760.198
 419  1481.951
 420  1343.221
 421  1079.177
 422  1181.602
 423  1315.354
 424  1211.411
 425  915.0627
 426  876.4948
 427  1038.264
 428  1215.891
 429  1347.389
 430  1743.648
 431  1744.868
 432  1736.115
 433  1903.739
 434  1713.254
 435  1472.651
 436  1781.152
 437  1904.387
 438  1551.877
 439  1173.265
 440  1166.415
 441  1280.409
 442  1208.753
 443  1376.233
 444  1282.51
 445  1419.626
 446  1815.63
 447  1878.002
 448  1648.439
 449  1634.011
 450  1863.017
 451  1890.983
 452  1513.322
 453  1360.81
 454  1185.732
 455  1127.504
 456  964.3352
 457  706.1305
 458  996.2419
 459  1342.845
 460  1401.962
 461  1318.319
 462  1477.811
 463  1851.193
 464  2003.765
 465  2162.676
 466  2142.169
 467  1793.3
 468  1615.024
 469  1632.185
 470  1434.069
 471  1214.536
 472  1514.712
 473  1650.533
 474  1407.119
 475  1373.52
 476  1486.251
 477  1593.454
 478  1904.329
 479  2159.583
 480  1951.797
 481  1624.498
 482  1791.56
 483  1950.464
 484  1648.719
 485  1575.524
 486  1509.423
 487  1559.597
 488  1394.068
 489  1082.764
 490  891.9064
 491  1007.053
 492  960.2732
 493  916.0079
 494  1021.911
 495  1553.331
 496  1735.789
 497  1817.135
 498  1986.163
 499  1812.944
 500  1620.072
 501  2043.481
 502  1918.921
 503  1686.058
 504  1584.874
 505  1814.551
 506  1504.36
 507  1163.692
 508  1306.913
 509  1346.647
 510  1421.306
 511  1821.259
 512  1851.384
 513  1589.867
 514  1648.18
 515  1962.103
 516  1984.973
 517  1710.329
 518  1750.597
 519  1730.627
 520  1449.511
 521  1333.267
 522  1101.704
 523  1116.062
 524  1250.516
 525  1071.858
 526  1048.808
 527  1047.328
 528  1325.644
 529  1548.63
 530  1747.902
 531  1928.076
 532  1822.506
 533  1926.453
 534  2067.709
 535  1717.158
 536  1359.759
 537  1549.242
 538  1488.978
 539  1168.796
 540  1120.745
 541  1250.02
 542  1239.522
 543  1273.987
 544  1493.777
 545  1393.195
 546  1508.62
 547  1845.366
 548  1995.687
 549  1594.919
 550  1526.192
 551  1665.584
 552  1551.638
 553  1406.357
 554  1186.553
 555  1114.19
 556  1124.468
 557  951.0952
 558  740.3465
 559  751.2289
 560  1040.664
 561  1253.253
 562  1321.169
 563  1725.126
 564  1757.563
 565  1767.212
 566  2065.469
 567  1908.279
 568  1594.05
 569  1487.899
 570  1510.484
 571  1192.23
 572  949.9594
 573  1084.921
 574  1193.224
 575  1105.11
 576  1511.07
 577  1632.214
 578  1546.014
 579  1616.561
 580  1787.479
 581  1689.553
 582  1570.961
 583  1777.103
 584  1849.03
 585  1527.541
 586  1401.013
 587  1055.001
 588  1114.494
 589  1264.093
 590  1167.602
 591  1127.986
 592  1175.301
 593  1550.231
 594  1677.707
 595  1868.781
 596  2060.887
 597  2200.687
 598  2297.045
 599  2502.09
 600  2363.778
 601  2382.846
 602  2732.709
 603  2636.451
 604  2261.265
 605  2117.206
 606  2032.285
 607  1931.362
 608  1680.82
 609  1751.903
 610  1630.953
 611  1703.203
 612  1892.458
 613  1887.639
 614  1491.405
 615  1505.513
 616  1639.388
 617  1595.021
 618  1502.68
 619  1379.16
 620  1339.218
 621  1328.106
 622  1182.792
 623  1071.33
 624  1067.782
 625  1327.158
 626  1373.757
 627  1337.588
 628  1704.6
 629  1811.131
 630  1933.173
 631  2081.115
 632  1803.435
 633  1457.87
 634  1626.804
 635  1822.318
 636  1614.735
 637  1234.935
 638  1356.069
 639  1439.964
 640  1292.511
 641  1590.245
 642  1677.445
 643  1845.943
 644  2031.028
 645  2148.304
 646  1878.654
 647  1632.191
 648  1857.327
 649  2011.442
 650  1657.174
 651  1530.897
 652  1343.422
 653  1380.527
 654  1360.024
 655  1226.661
 656  1293.963
 657  1428.992
 658  1516.677
 659  1552.908
 660  1639.246
 661  1955.671
 662  2001.181
 663  1932.979
 664  1882.43
 665  1665.528
 666  1632.013
 667  2053.796
 668  1778.87
 669  1527.225
 670  1611.948
 671  1935.74
 672  1722.19
 673  1401.747
 674  1360.451
 675  1509.219
 676  1784.639
 677  2061.786
 678  1935.696
 679  1635.783
 680  1826.291
 681  2125.442
 682  1907.373
 683  1811.753
 684  1830.615
 685  1776.505
 686  1651.049
 687  1491.011
 688  1330.973
 689  1290.174
 690  1331.124
 691  1149.343
 692  1110.532
 693  1293.446
 694  1694.949
 695  1940.737
 696  2184.344
 697  1915.92
 698  1626.305
 699  1891.926
 700  1939.61
 701  1689.891
 702  1353.787
 703  1415.395
 704  1287.936
 705  1020.542
 706  1264.797
 707  1366.519
 708  1412.513
 709  1736.439
 710  1834.336
 711  1628.662
 712  1581.036
 713  1898.603
 714  1963.515
 715  1617.899
 716  1605.346
 717  1551.848
 718  1447.261
 719  1442.116
 720  1264.183
 721  1066.546
 722  1156.521
 723  1040.509
 724  1147.232
 725  1017.669
 726  1372.981
 727  1570.863
 728  1893.689
 729  2019.246
 730  1803.223
 731  1676.693
 732  1982.922
 733  1736.283
 734  1355.586
 735  1474.24
 736  1556.491
 737  1347.422
 738  1210.083
 739  1380.317
 740  1521.33
 741  1535.299
 742  1753.408
 743  1648.771
 744  1496.474
 745  1710.104
 746  2015.331
 747  1824.345
 748  1634.414
 749  1569.522
 750  1437.777
 751  1278.818
 752  1161.436
 753  1038.15
 754  1144.257
 755  1160.863
 756  1164.92
 757  1038.033
 758  1304.402
 759  1507.963
 760  1574.601
 761  1660.973
 762  1678.292
 763  1664.642
 764  1748.991
 765  1750.856
 766  1549.736
 767  1533.535
 768  1875.533
 769  1747.46
 770  1511.431
 771  1700.647
 772  1854.374
 773  1792.434
 774  1837.69
 775  1951.456
 776  1773.81
 777  1892.549
 778  2118.72
 779  1950.87
 780  1592.454
 781  1566.394
 782  1660.802
 783  1320.557
 784  1245.658
 785  1090.761
 786  1239.566
 787  1411.997
 788  1259.854
 789  1152.118
 790  1165.248
 791  1508.603
 792  1616.925
 793  1673.731
 794  1856.425
 795  1918.253
 796  1793.778
 797  1934.1
 798  1621.055
 799  1483.723
 800  1791.878
 801  1861.49
 802  1643.718
 803  1458.245
 804  1549.049
 805  1440.103
 806  1355.189
 807  1659.198
 808  1739.531
 809  1617.059
 810  1914.701
 811  2066.669
 812  1960.815
 813  1880.832
 814  1996.485
 815  1902.141
 816  1619.976
 817  1638.776
 818  1596.23
 819  1688.517
 820  1568.152
 821  1389.766
 822  1237.262
 823  1300.44
 824  1445.506
 825  1542.845
 826  1731.875
 827  1866.682
 828  1922.812
 829  1913.391
 830  1830.275
 831  1677.009
 832  1786.228
 833  2240.231
 834  2015.127
 835  1631.227
 836  1580.675
 837  1590.308
 838  1398.884
 839  1531.878
 840  1679.072
 841  1623.822
 842  1731.409
 843  2028.519
 844  1897.395
 845  1562.183
 846  1760.825
 847  2197.541
 848  2051.917
 849  1983.857
 850  1812.845
 851  1718.063
 852  1401.724
 853  1048.943
 854  912.381
 855  968.6091
 856  1053.34
 857  1170.078
 858  1343.264
 859  1723.78
 860  1801.875
 861  1799.44
 862  1894.374
 863  1607.024
 864  1444.274
 865  1814.564
 866  1802.504
 867  1397.845
 868  1134.811
 869  1236.732
 870  1073.502
 871  1054.282
 872  1394.962
 873  1498.012
 874  1472.429
 875  1802.537
 876  1936.511
 877  1641.48
 878  1560.725
 879  1854.515
 880  1965.71
 881  1776.582
 882  1565.556
 883  1417.266
 884  1286.577
 885  1260.67
 886  1076.711
 887  1030.846
 888  1270.858
 889  1208.565
 890  1084.275
 891  1221.669
 892  1534.934
 893  1804.773
 894  1833.581
 895  1768.909
 896  1440.526
 897  1317.545
 898  1514.44
 899  1388.541
 900  1179.289
 901  1443.589
 902  1530.242
 903  1433.736
 904  1474.621
 905  1593.604
 906  1683.723
 907  1804.85
 908  2023.988
 909  1889.321
 910  1680.905
 911  1807.269
 912  1910.775
 913  1656.968
 914  1543.398
 915  1553.559
 916  1590.744
 917  1620.138
 918  1430.901
 919  1268.842
 920  1261.372
 921  1359.708
 922  1239.664
 923  1169.833
 924  1482.775
 925  1734.411
 926  1893.294
 927  1975.9
 928  1973.15
 929  1818.757
 930  2037.447
 931  1819.312
 932  1502.302
 933  1629.797
 934  1987.169
 935  1848.201
 936  1460.392
 937  1505.109
 938  1565.996
 939  1624.522
 940  1886.699
 941  2054.706
 942  1807.157
 943  1917.514
 944  2156.12
 945  2285.205
 946  1924.404
 947  1910.189
 948  1847.941
 949  1769.051
 950  1749.069
 951  1635.173
 952  1729.963
 953  1738.39
 954  1592.523
 955  1522.846
 956  1549.794
 957  1743.843
 958  1954.307
 959  2292.665
 960  2435.736
 961  2220.543
 962  2087.825
 963  2233.566
 964  1873.638
 965  1589.006
 966  1895.032
 967  1990.362
 968  1707.003
 969  1537.728
 970  1672.381
 971  1869.126
 972  2071.582
 973  2330.642
 974  2154.116
 975  1911.828
 976  2236.653
 977  2470.855
 978  2257.646
 979  2031.603
 980  2074.908
 981  1843.868
 982  1742.014
 983  1550.005
 984  1494.281
 985  1454.368
 986  1430.084
 987  1248.764
 988  1187.314
 989  1335.752
 990  1679.596
 991  1842.447
 992  2033.385
 993  1956.078
 994  2012.532
 995  2432.223
 996  2407.384
 997  1907.945
 998  1768.545
 999  1903.546
1000  1817.728
1001  1549.546
1002  1520.223
1003  1523.733
1004  1428.697
1005  1791.168
1006  1794.759
1007  1688.191
1008  2003.396
1009  2370.448
1010  2290.955
1011  1881.315
1012  2088.188
1013  2125.385
1014  1852.234
1015  1531.656
1016  1341.153
1017  1224.205
1018  1272.623
1019  1126.188
1020  1031.44
1021  1041.25
1022  1200.123
1023  1350.919
