# Input file       =  1209475210.112065_cleaned.dat
# Candidate        =  PSR_0332+5434
# Telescope        =  AR
# Epoch_topo       =  58242.555892500750
# Epoch_bary       =  N/A
# T_sample         =  0.002
# Data Folded      =  7340032
# Data Avg         =  0.0469142572872501
# Data StdDev      =  1.00010918536877 
# Profile Bins     =  512
# Profile Avg      =  672.591632222179 
# Profile StdDev   =  119.746109472496 
# Reduced chi-sqr  =  1.313
# Prob(Noise)      <  2.39e-06   (~4.6 sigma)
# P_topo (ms)      =  714.543835698152  +/- 0.000259
# P'_topo (s/s)    =  -0                +/- 1.36e-10
# P''_topo (s/s^2) =  0                 +/- 6.02e-14
# P_bary (ms)      =  N/A
# P'_bary (s/s)    =  N/A
# P''_bary (s/s^2) =  N/A
# P_orb (s)        =  N/A
# asin(i)/c (s)    =  N/A
# eccentricity     =  N/A
# w (rad)          =  N/A
# T_peri           =  N/A
######################################################
   0  740.475
   1  732.26
   2  717.7838
   3  807.348
   4  774.6245
   5  725.0281
   6  723.8243
   7  714.2303
   8  664.2686
   9  623.4949
  10  643.8375
  11  619.9146
  12  597.7687
  13  573.6721
  14  548.7125
  15  526.0985
  16  627.451
  17  583.2597
  18  692.461
  19  830.2496
  20  815.0543
  21  805.1086
  22  747.3873
  23  691.9772
  24  741.4197
  25  815.4671
  26  791.2185
  27  785.1014
  28  748.1226
  29  700.6229
  30  623.7202
  31  590.9761
  32  635.5648
  33  646.8776
  34  635.42
  35  656.6129
  36  773.8222
  37  807.6687
  38  774.9292
  39  811.8189
  40  754.2101
  41  787.4005
  42  744.5344
  43  677.2397
  44  620.974
  45  679.3492
  46  667.9053
  47  563.8562
  48  588.6523
  49  663.5341
  50  676.5445
  51  674.8333
  52  674.6339
  53  649.3622
  54  666.6761
  55  723.5981
  56  626.6924
  57  619.4661
  58  683.382
  59  566.662
  60  618.3419
  61  739.7869
  62  691.8864
  63  629.169
  64  644.2062
  65  723.5068
  66  701.8957
  67  663.46
  68  630.1093
  69  746.6214
  70  765.1857
  71  722.9178
  72  603.8011
  73  590.1591
  74  699.4274
  75  791.5303
  76  780.4009
  77  701.51
  78  638.1381
  79  565.6225
  80  567.5496
  81  555.5206
  82  568.7267
  83  557.9307
  84  615.8143
  85  649.8289
  86  621.3865
  87  635.5017
  88  623.7714
  89  603.5925
  90  591.2114
  91  595.0114
  92  652.5531
  93  647.0607
  94  668.9337
  95  633.0231
  96  546.4674
  97  564.2737
  98  536.6679
  99  623.6616
 100  558.3052
 101  540.1627
 102  655.196
 103  669.9253
 104  590.691
 105  614.4781
 106  694.1055
 107  764.4088
 108  677.6224
 109  740.4527
 110  793.2133
 111  697.2488
 112  516.5669
 113  543.0879
 114  608.1153
 115  638.675
 116  600.3655
 117  670.2446
 118  605.0388
 119  559.3301
 120  604.4843
 121  604.8793
 122  662.2091
 123  625.3114
 124  708.2073
 125  667.2548
 126  637.2172
 127  594.879
 128  629.4147
 129  572.2239
 130  628.4113
 131  652.3351
 132  646.8854
 133  563.076
 134  638.5965
 135  724.6178
 136  612.0454
 137  582.209
 138  657.6223
 139  625.0079
 140  651.7755
 141  599.8745
 142  590.7147
 143  709.0317
 144  681.1759
 145  679.453
 146  800.7383
 147  801.4557
 148  784.0142
 149  816.8013
 150  742.7919
 151  582.2947
 152  654.0006
 153  653.9654
 154  676.3384
 155  656.4958
 156  686.918
 157  751.4369
 158  700.0379
 159  718.117
 160  619.5411
 161  636.5995
 162  608.2583
 163  674.6989
 164  721.2983
 165  673.8378
 166  666.9885
 167  741.8928
 168  656.2111
 169  637.466
 170  729.2346
 171  764.0704
 172  677.5226
 173  610.9698
 174  611.3875
 175  664.7075
 176  670.4456
 177  657.0095
 178  623.8488
 179  657.6385
 180  632.7385
 181  705.4799
 182  862.0745
 183  831.9874
 184  713.4247
 185  715.6259
 186  763.6364
 187  691.2346
 188  776.1805
 189  742.8652
 190  714.3697
 191  759.0231
 192  741.2606
 193  685.2217
 194  774.3624
 195  762.3287
 196  748.6455
 197  880.23
 198  817.7809
 199  677.7005
 200  731.824
 201  792.1265
 202  726.066
 203  695.6516
 204  688.9519
 205  730.1167
 206  641.7367
 207  617.6972
 208  598.6971
 209  625.6531
 210  615.0697
 211  532.0137
 212  621.2165
 213  573.0335
 214  555.7794
 215  519.1259
 216  480.3217
 217  546.7064
 218  597.2484
 219  675.2216
 220  669.6103
 221  547.8173
 222  496.1072
 223  457.1451
 224  436.2885
 225  563.4458
 226  668.8995
 227  630.4452
 228  651.4802
 229  719.7286
 230  640.9953
 231  617.5784
 232  668.5572
 233  616.9037
 234  642.3341
 235  772.217
 236  756.9473
 237  770.8582
 238  760.7145
 239  599.2175
 240  492.398
 241  567.0327
 242  698.7191
 243  652.5007
 244  550.3534
 245  483.1214
 246  573.6898
 247  729.7574
 248  723.5547
 249  550.9012
 250  511.8912
 251  720.6127
 252  731.4983
 253  700.002
 254  846.2925
 255  743.6867
 256  666.1694
 257  512.2114
 258  465.6673
 259  581.4936
 260  616.5587
 261  599.0853
 262  558.7924
 263  512.9036
 264  404.73
 265  519.8463
 266  682.8088
 267  665.9004
 268  599.6846
 269  707.4636
 270  597.228
 271  561.6276
 272  680.1006
 273  779.6115
 274  786.2159
 275  795.8672
 276  814.8457
 277  718.5251
 278  661.0031
 279  679.5309
 280  688.071
 281  664.0891
 282  787.1224
 283  861.5789
 284  677.8148
 285  708.806
 286  747.1056
 287  699.9709
 288  706.2666
 289  965.9928
 290  1116.891
 291  1286.07
 292  1348.01
 293  1279.988
 294  1079.873
 295  1001.767
 296  858.5376
 297  641.7471
 298  681.5188
 299  698.075
 300  736.0201
 301  698.874
 302  729.0458
 303  760.784
 304  756.6282
 305  797.9203
 306  667.3794
 307  714.7327
 308  682.9691
 309  604.4889
 310  642.2954
 311  571.4877
 312  590.7253
 313  633.8796
 314  529.9723
 315  480.3298
 316  524.4132
 317  582.0726
 318  656.232
 319  584.6595
 320  683.8731
 321  719.7238
 322  633.9772
 323  668.2108
 324  573.884
 325  673.4257
 326  572.7665
 327  494.3017
 328  612.8259
 329  651.8373
 330  709.1022
 331  676.0107
 332  661.4223
 333  647.7414
 334  704.3416
 335  702.9811
 336  603.458
 337  566.1371
 338  640.817
 339  635.788
 340  701.8303
 341  637.1366
 342  680.4512
 343  687.2521
 344  672.9824
 345  661.6817
 346  696.3677
 347  705.8482
 348  725.7461
 349  782.7385
 350  715.2674
 351  657.5381
 352  577.5082
 353  705.2327
 354  782.1174
 355  636.2238
 356  759.796
 357  793.9991
 358  717.4739
 359  699.4568
 360  725.8083
 361  665.0936
 362  624.5108
 363  716.8653
 364  636.7632
 365  665.0703
 366  791.4699
 367  701.3929
 368  651.2485
 369  594.1665
 370  721.7598
 371  815.4064
 372  758.7069
 373  785.9147
 374  657.4938
 375  582.585
 376  641.962
 377  724.547
 378  703.6578
 379  773.0579
 380  689.6032
 381  643.3932
 382  656.7742
 383  664.2204
 384  710.1118
 385  720.7498
 386  662.2837
 387  700.2047
 388  731.5323
 389  702.6651
 390  641.9623
 391  571.7573
 392  641.8254
 393  635.9954
 394  653.7842
 395  605.3576
 396  601.3364
 397  603.8819
 398  659.1716
 399  740.9518
 400  709.6774
 401  759.0429
 402  808.2476
 403  793.627
 404  750.2828
 405  744.1158
 406  711.0155
 407  774.314
 408  845.7626
 409  639.9854
 410  635.9445
 411  717.8054
 412  727.9535
 413  665.9899
 414  599.7563
 415  629.7723
 416  786.9782
 417  681.0961
 418  556.033
 419  436.3799
 420  557.5176
 421  658.885
 422  680.5712
 423  682.9029
 424  629.0065
 425  600.3395
 426  556.1973
 427  556.913
 428  689.507
 429  753.4012
 430  594.0994
 431  579.6346
 432  696.2343
 433  737.9721
 434  651.442
 435  633.3915
 436  697.8502
 437  643.9553
 438  640.1576
 439  576.3028
 440  568.0402
 441  562.3495
 442  557.5178
 443  585.991
 444  592.2066
 445  583.4893
 446  594.8516
 447  670.4178
 448  687.6418
 449  657.0624
 450  686.51
 451  699.1018
 452  649.964
 453  574.1417
 454  670.167
 455  712.0159
 456  715.863
 457  643.6123
 458  736.2264
 459  596.0514
 460  551.6951
 461  663.9762
 462  804.7064
 463  719.0966
 464  742.6782
 465  526.2289
 466  589.889
 467  875.0122
 468  845.788
 469  748.163
 470  592.5963
 471  591.0693
 472  606.3665
 473  557.1489
 474  520.7966
 475  484.8195
 476  579.0815
 477  706.1896
 478  652.0768
 479  676.794
 480  680.1918
 481  656.5612
 482  661.7921
 483  713.4936
 484  682.0279
 485  683.5104
 486  769.1824
 487  851.841
 488  739.1356
 489  715.2852
 490  806.7588
 491  775.4918
 492  675.2399
 493  722.636
 494  752.8416
 495  735.0831
 496  701.5197
 497  636.6922
 498  673.91
 499  726.9488
 500  648.7534
 501  612.9337
 502  561.3558
 503  679.6183
 504  610.9038
 505  599.902
 506  726.9798
 507  648.4047
 508  546.515
 509  531.0986
 510  644.5476
 511  791.6776
