# Input file       =  1209977319.111644_cleaned.dat
# Candidate        =  PSR_0332+5434
# Telescope        =  AR
# Epoch_topo       =  58248.367339255143
# Epoch_bary       =  N/A
# T_sample         =  0.002
# Data Folded      =  7340032
# Data Avg         =  0.163545666074372
# Data StdDev      =  4.51661231059631 
# Profile Bins     =  1024
# Profile Avg      =  1172.32455327921 
# Profile StdDev   =  382.394654154581 
# Reduced chi-sqr  =  0.909
# Prob(Noise)      <  0.982   (~0.0 sigma)
# P_topo (ms)      =  714.538057844581  +/- 0.000524
# P'_topo (s/s)    =  -0                +/- 2.77e-10
# P''_topo (s/s^2) =  0                 +/- 1.22e-13
# P_bary (ms)      =  N/A
# P'_bary (s/s)    =  N/A
# P''_bary (s/s^2) =  N/A
# P_orb (s)        =  N/A
# asin(i)/c (s)    =  N/A
# eccentricity     =  N/A
# w (rad)          =  N/A
# T_peri           =  N/A
######################################################
   0  893.0419
   1  912.7147
   2  863.9027
   3  821.7729
   4  839.7047
   5  885.0831
   6  989.2319
   7  1031.79
   8  1038.509
   9  987.5679
  10  981.4545
  11  938.2253
  12  883.7532
  13  851.5286
  14  931.3278
  15  996.2566
  16  1039.038
  17  1018.669
  18  1117.363
  19  1242.075
  20  1231.299
  21  1192.884
  22  1062.696
  23  1054.374
  24  1031.873
  25  1163.555
  26  1230.81
  27  1247.123
  28  1180.121
  29  1160.617
  30  1091.062
  31  1033.445
  32  991.2946
  33  1070.11
  34  1075.697
  35  1063.517
  36  970.8195
  37  908.4977
  38  986.8921
  39  1103.133
  40  1099.256
  41  988.5738
  42  954.751
  43  984.2466
  44  1007.777
  45  914.7692
  46  860.0792
  47  747.4566
  48  812.2722
  49  901.2692
  50  1020.093
  51  1004.109
  52  943.9002
  53  947.6786
  54  983.5724
  55  1022.796
  56  1098.166
  57  1098.439
  58  1193.778
  59  1225.884
  60  1180.026
  61  1137.352
  62  1136.265
  63  1166.132
  64  1261.608
  65  1151.471
  66  1192.255
  67  1144.019
  68  1214.663
  69  1213.505
  70  1182.586
  71  1146.605
  72  1040.292
  73  1031.531
  74  1019.143
  75  1050.266
  76  1003.114
  77  950.0767
  78  975.2529
  79  1015.806
  80  1013.034
  81  995.6304
  82  953.8383
  83  987.8203
  84  1080.798
  85  1178.046
  86  1230.166
  87  1186.069
  88  1138.352
  89  1184.43
  90  1171.315
  91  1248.303
  92  1277.109
  93  1228.994
  94  1192.524
  95  1127.33
  96  1242.228
  97  1153.346
  98  1188.966
  99  1238.19
 100  1275.036
 101  1160.605
 102  1162.992
 103  1243.087
 104  1353.422
 105  1185.302
 106  1165.238
 107  1186.483
 108  1273.535
 109  1297.153
 110  1227.976
 111  1203.419
 112  1266.965
 113  1239.612
 114  1216.713
 115  1096.088
 116  1236.414
 117  1277.311
 118  1416.161
 119  1437.559
 120  1366.406
 121  1324.661
 122  1308.675
 123  1424.178
 124  1380.677
 125  1354.386
 126  1296.267
 127  1296.596
 128  1242.215
 129  1168.969
 130  1170.649
 131  1294.741
 132  1397.074
 133  1339.128
 134  1268.036
 135  1261.598
 136  1328.566
 137  1376.441
 138  1367.025
 139  1327.399
 140  1316.282
 141  1260.98
 142  1252.365
 143  1208.866
 144  1274.477
 145  1327.677
 146  1231.33
 147  1159.853
 148  1224.591
 149  1370.794
 150  1416.632
 151  1276.932
 152  1150.238
 153  1086.565
 154  1102.516
 155  1130.349
 156  1123.783
 157  1007.295
 158  1017.228
 159  1036.175
 160  1103.477
 161  1198.516
 162  1169.391
 163  1189.172
 164  1098.272
 165  1224.858
 166  1194.291
 167  1152.754
 168  1187.571
 169  1319.094
 170  1381.57
 171  1266.838
 172  1155.236
 173  1126.662
 174  1171.854
 175  1333.014
 176  1439.147
 177  1396.912
 178  1236.534
 179  1198.205
 180  1247.734
 181  1362.951
 182  1282.875
 183  1287.731
 184  1247.929
 185  1224.822
 186  1189.66
 187  1173.173
 188  1198.158
 189  1313.688
 190  1274.397
 191  1259.168
 192  1209.762
 193  1249.185
 194  1083.064
 195  1100.89
 196  1247.205
 197  1387.031
 198  1229.885
 199  1093.261
 200  1081.888
 201  1193.462
 202  1185.152
 203  1242.776
 204  1350.821
 205  1362.898
 206  1414.838
 207  1397.376
 208  1481.941
 209  1466.586
 210  1455.125
 211  1353.762
 212  1343.627
 213  1400.011
 214  1437.755
 215  1387.571
 216  1265.874
 217  1351.094
 218  1428.39
 219  1406.317
 220  1311.953
 221  1244.408
 222  1261.057
 223  1300.577
 224  1300.6
 225  1439.916
 226  1505.689
 227  1536.206
 228  1354.663
 229  1238.945
 230  1220.737
 231  1233.546
 232  1258.331
 233  1248.5
 234  1220.439
 235  1109.423
 236  1025.079
 237  1084.489
 238  1072.416
 239  1221.38
 240  1162.911
 241  1199.591
 242  1169.678
 243  1170.109
 244  1118.578
 245  1058.3
 246  1127.228
 247  1135.304
 248  1046.84
 249  946.8689
 250  1016.416
 251  1074.732
 252  1086.746
 253  1026.615
 254  1021.419
 255  1085.398
 256  1065.657
 257  1087.124
 258  1159.259
 259  1192.147
 260  1153.743
 261  1055.777
 262  1077.325
 263  1145.537
 264  1162.422
 265  1231.146
 266  1275.252
 267  1265.45
 268  1225.972
 269  1195.057
 270  1217.984
 271  1179.115
 272  1244.425
 273  1319.516
 274  1335.778
 275  1290.517
 276  1196.945
 277  1135.896
 278  1090.562
 279  1166.047
 280  1185.335
 281  1091.717
 282  1080.484
 283  1108.24
 284  1138.052
 285  1130.373
 286  1064.31
 287  1092.467
 288  1038.478
 289  1123.246
 290  1173.071
 291  1186.741
 292  1300.179
 293  1296.302
 294  1385.814
 295  1287.504
 296  1232.662
 297  1094.29
 298  1123.576
 299  1274.292
 300  1300.425
 301  1233.139
 302  1182.419
 303  1313.35
 304  1390.547
 305  1341.228
 306  1307.339
 307  1271.615
 308  1426.035
 309  1334.839
 310  1337.819
 311  1189.473
 312  1165.826
 313  1076.767
 314  1163.223
 315  1274.47
 316  1270.457
 317  1190.702
 318  1086.222
 319  1092.082
 320  1024.597
 321  964.1549
 322  968.2038
 323  1045.587
 324  1042.936
 325  918.2913
 326  838.5505
 327  767.8873
 328  874.9642
 329  911.0312
 330  1004.188
 331  1005.746
 332  998.984
 333  1047.816
 334  1054.052
 335  1046.198
 336  937.4843
 337  846.2189
 338  929.5798
 339  1070.391
 340  1145.462
 341  1082.722
 342  964.0993
 343  915.2546
 344  884.9761
 345  976.601
 346  1057.54
 347  1079.5
 348  1141.549
 349  1099.345
 350  1096.347
 351  1114.475
 352  1144.836
 353  1146.144
 354  1093.57
 355  1017.109
 356  1034.034
 357  1134.39
 358  1111.943
 359  1015.974
 360  970.3354
 361  1010.909
 362  1044.796
 363  1083.111
 364  1059.89
 365  1027.081
 366  929.5674
 367  929.65
 368  929.4291
 369  895.0633
 370  900.3197
 371  958.1036
 372  1070.034
 373  1149.655
 374  1068.077
 375  1061.175
 376  991.9551
 377  989.9908
 378  965.2864
 379  947.4157
 380  860.079
 381  882.459
 382  997.337
 383  1042.56
 384  1007.91
 385  1116.558
 386  1264.583
 387  1313.936
 388  1224.027
 389  1169.076
 390  1159.812
 391  1284.472
 392  1313.121
 393  1248.901
 394  1172.497
 395  1102.186
 396  1101.954
 397  1053.553
 398  1145.025
 399  1176.292
 400  1116.531
 401  1117.936
 402  1140.475
 403  1162.11
 404  1098.937
 405  982.2403
 406  1035.578
 407  1102.052
 408  1164.212
 409  1138.751
 410  1063.612
 411  1094.974
 412  1157.181
 413  1233.595
 414  1208.712
 415  1142.607
 416  1090.117
 417  1129.349
 418  1240.273
 419  1182.881
 420  1114.996
 421  1188.382
 422  1132.643
 423  1034.028
 424  967.1707
 425  1060.689
 426  1062.606
 427  927.0581
 428  893.5128
 429  1014.208
 430  1053.567
 431  1029.56
 432  1066.639
 433  1188.907
 434  1073.54
 435  946.1851
 436  876.2615
 437  853.2673
 438  810.4175
 439  930.9246
 440  1122.664
 441  1155.169
 442  1069.376
 443  971.8229
 444  1002.528
 445  951.851
 446  987.9113
 447  1051.856
 448  1106.37
 449  1069.165
 450  993.2259
 451  1014.638
 452  1051.646
 453  949.5369
 454  888.8643
 455  924.5377
 456  1127.673
 457  1191.838
 458  1216.043
 459  1064.507
 460  980.2055
 461  949.0476
 462  890.7982
 463  905.9759
 464  981.1247
 465  1030.265
 466  1123.912
 467  1109.472
 468  1074.354
 469  1047.297
 470  1059.058
 471  1191.227
 472  1214.469
 473  1229.366
 474  1202.333
 475  1239.095
 476  1175.382
 477  1119.228
 478  1130.653
 479  1180.497
 480  1148.814
 481  1122.563
 482  1150.279
 483  1152.128
 484  1104.013
 485  1006.262
 486  989.9165
 487  921.919
 488  922.4945
 489  882.6378
 490  978.4768
 491  998.5946
 492  979.3694
 493  921.1532
 494  947.5516
 495  1092.994
 496  1109.172
 497  1164.355
 498  1159.507
 499  1184.775
 500  1236.478
 501  1148.275
 502  1154.71
 503  1084.732
 504  1161.14
 505  1315.474
 506  1388.826
 507  1266.183
 508  1094.382
 509  1037.579
 510  1063.981
 511  1140.964
 512  1263.923
 513  1287.6
 514  1281.91
 515  1191.538
 516  1163.479
 517  1035.578
 518  1079.765
 519  1123.02
 520  1191.946
 521  1186.75
 522  1122.579
 523  1068.442
 524  1083.964
 525  1078.311
 526  1073.1
 527  1105.721
 528  1187.071
 529  1206.677
 530  1233.077
 531  1260.769
 532  1247.316
 533  1148.073
 534  1103.804
 535  1057.775
 536  1096.415
 537  1081.971
 538  1074.669
 539  1007.818
 540  1023.778
 541  973.6937
 542  1075.416
 543  1230.731
 544  1269.382
 545  1170.961
 546  1150.005
 547  1259.241
 548  1367.225
 549  1394.985
 550  1354.218
 551  1266.424
 552  1180.335
 553  1168.209
 554  1207.289
 555  1238.322
 556  1296.171
 557  1253.311
 558  1190.47
 559  1212.586
 560  1302.845
 561  1389.594
 562  1386.224
 563  1357.799
 564  1359.2
 565  1338.566
 566  1298.583
 567  1279.602
 568  1327.732
 569  1463.303
 570  1396.193
 571  1211.581
 572  1145.572
 573  1251.573
 574  1397.63
 575  1472.579
 576  1368.381
 577  1204.44
 578  1154.404
 579  1262.726
 580  1381.482
 581  1420.165
 582  1371.732
 583  1397.647
 584  1375.947
 585  1362.668
 586  1223.657
 587  1238.998
 588  1304.472
 589  1475.111
 590  1608.649
 591  1615.516
 592  1619.252
 593  1661.807
 594  1851.009
 595  1961.721
 596  2082.979
 597  2267.628
 598  2395.739
 599  2543.281
 600  2520.137
 601  2523.741
 602  2414.653
 603  2253.794
 604  2213.763
 605  2219.2
 606  2093.518
 607  1767.213
 608  1560.876
 609  1408.625
 610  1401.017
 611  1424.717
 612  1494.626
 613  1454.413
 614  1360.206
 615  1271.948
 616  1166.506
 617  1126.298
 618  1059.793
 619  1070.291
 620  1079.391
 621  1211.547
 622  1310.606
 623  1347.371
 624  1342.924
 625  1361.797
 626  1335.03
 627  1265.116
 628  1210.719
 629  1240.707
 630  1272.801
 631  1256.864
 632  1252.688
 633  1241.379
 634  1289.915
 635  1161.569
 636  1027.398
 637  907.2581
 638  936.7563
 639  933.8806
 640  985.4781
 641  1004.59
 642  1076.512
 643  1219.608
 644  1270.717
 645  1313.708
 646  1207.995
 647  1231.634
 648  1213.551
 649  1147.161
 650  1096.866
 651  1122.851
 652  1132.021
 653  1058.084
 654  1055.747
 655  1127.914
 656  1197.862
 657  1223.749
 658  1261.756
 659  1240.973
 660  1282.636
 661  1242.156
 662  1196.164
 663  1103.474
 664  1122.406
 665  1159.464
 666  1096.05
 667  1052.469
 668  1137.302
 669  1233.626
 670  1316.174
 671  1300.766
 672  1311.412
 673  1307.361
 674  1238.565
 675  1179.354
 676  1181.015
 677  1264.975
 678  1273.947
 679  1266.385
 680  1422.015
 681  1462.02
 682  1407.021
 683  1337.894
 684  1280.602
 685  1273.255
 686  1237.464
 687  1324.427
 688  1260.246
 689  1297.172
 690  1224.029
 691  1227.705
 692  1194.445
 693  1295.194
 694  1270.084
 695  1212.797
 696  1220.619
 697  1204.601
 698  1208.001
 699  1267.524
 700  1362.482
 701  1446.158
 702  1427.436
 703  1462.556
 704  1412.919
 705  1389.302
 706  1471.156
 707  1582.419
 708  1586.128
 709  1343.515
 710  1249.596
 711  1321.905
 712  1440.087
 713  1481.669
 714  1532.651
 715  1438.792
 716  1430.702
 717  1571.765
 718  1657.243
 719  1578.164
 720  1445.331
 721  1461.893
 722  1556.702
 723  1577.854
 724  1561.292
 725  1448.318
 726  1309.429
 727  1229.558
 728  1254.871
 729  1395.944
 730  1431.437
 731  1541.313
 732  1592.589
 733  1734.053
 734  1666.722
 735  1580.032
 736  1494.884
 737  1473.568
 738  1502.047
 739  1337.949
 740  1253.308
 741  1262.324
 742  1375.987
 743  1298.252
 744  1329.908
 745  1379.877
 746  1429.518
 747  1501.878
 748  1540.115
 749  1536.116
 750  1473.472
 751  1450.007
 752  1382.203
 753  1309.719
 754  1207.721
 755  1285.065
 756  1393.065
 757  1390.727
 758  1349.03
 759  1269.24
 760  1274.825
 761  1282.642
 762  1263.028
 763  1272.848
 764  1250.37
 765  1247.762
 766  1219.287
 767  1076.149
 768  1107.92
 769  1087.011
 770  1136.778
 771  1186.339
 772  1246.892
 773  1230.038
 774  1053.259
 775  1054.782
 776  1016.615
 777  1115.91
 778  1224.079
 779  1222.773
 780  1232.699
 781  1223.702
 782  1222.365
 783  1141.773
 784  1088.285
 785  1058.893
 786  1142.654
 787  1155.859
 788  1172.191
 789  1060.911
 790  1037.78
 791  1047.109
 792  1115.138
 793  1101.236
 794  1089.803
 795  1026.766
 796  994.998
 797  953.287
 798  940.6553
 799  917.5491
 800  845.9081
 801  900.4774
 802  959.9859
 803  977.6115
 804  934.9885
 805  851.452
 806  794.2042
 807  827.8083
 808  879.0155
 809  881.8392
 810  855.3531
 811  861.864
 812  884.8291
 813  910.1664
 814  967.0203
 815  1021.888
 816  1007.947
 817  1019.609
 818  1001.731
 819  1083.532
 820  1112.916
 821  1136.401
 822  1081.574
 823  1007.983
 824  952.8797
 825  972.743
 826  1071.329
 827  1152.211
 828  1224.794
 829  1223.118
 830  1214.174
 831  1258.291
 832  1244.996
 833  1243.524
 834  1209.333
 835  1304.25
 836  1314.403
 837  1203.764
 838  1022.363
 839  1059.62
 840  1092.316
 841  1039.821
 842  907.0806
 843  932.5662
 844  1001.343
 845  1050.76
 846  1033.105
 847  1085.295
 848  1152.504
 849  1162.619
 850  1168.131
 851  1151.999
 852  1139.761
 853  1086.589
 854  1088.457
 855  1039.185
 856  1053.038
 857  970.1448
 858  965.6044
 859  907.5925
 860  938.16
 861  888.8013
 862  891.4764
 863  879.8508
 864  949.8951
 865  988.3877
 866  1000.032
 867  1016.031
 868  1020.006
 869  1080.987
 870  1144.21
 871  1216.968
 872  1261.127
 873  1247.859
 874  1160.457
 875  1101.928
 876  1062.628
 877  1080.087
 878  1093.609
 879  1088.899
 880  1141.992
 881  1083.115
 882  1045.649
 883  1030.357
 884  1187.11
 885  1141.209
 886  1128.448
 887  1138.808
 888  1188.286
 889  1176.301
 890  1168.334
 891  1200.661
 892  1219.773
 893  1253.952
 894  1209.357
 895  1228.451
 896  1207.729
 897  1245.741
 898  1235.099
 899  1208.903
 900  1153.427
 901  1180.621
 902  1133.743
 903  1089.942
 904  1093.676
 905  1170.33
 906  1091.646
 907  1044.672
 908  1027.522
 909  1233.713
 910  1292.405
 911  1307.119
 912  1154.448
 913  1096.971
 914  1148.21
 915  1059.368
 916  1111.547
 917  944.8155
 918  1116.584
 919  1205.55
 920  1287.436
 921  1259.825
 922  1187.772
 923  1200.816
 924  1225.436
 925  1257.121
 926  1238.182
 927  1195.991
 928  1147.214
 929  1109.494
 930  1036.903
 931  922.7802
 932  935.6396
 933  1019.079
 934  1176.937
 935  1114.278
 936  1027.986
 937  986.5603
 938  1043.604
 939  1158.274
 940  1185.352
 941  1215.809
 942  1169.079
 943  1123.046
 944  1047.554
 945  943.3197
 946  994.8091
 947  1001.759
 948  876.2476
 949  708.9796
 950  722.8589
 951  898.1053
 952  1126.267
 953  1243.307
 954  1193.753
 955  1106.9
 956  979.6027
 957  1037.538
 958  1078.839
 959  1089.304
 960  1090.111
 961  1014.252
 962  1058.131
 963  1088.142
 964  1175.671
 965  1218.609
 966  1177.689
 967  1202.305
 968  1110.312
 969  1095.151
 970  1032.814
 971  1001.359
 972  961.1401
 973  883.676
 974  918.041
 975  901.1957
 976  915.348
 977  859.3964
 978  882.5336
 979  851.2607
 980  936.6478
 981  1027.428
 982  1195.346
 983  1239.977
 984  1234.005
 985  1245.609
 986  1080.631
 987  1027.885
 988  928.3867
 989  1010.062
 990  1109.124
 991  1178.668
 992  1189.79
 993  1167.334
 994  1201.221
 995  1231.208
 996  1227.257
 997  1209.391
 998  1118.626
 999  1131.394
1000  1144.231
1001  1100.612
1002  1160.854
1003  1192.889
1004  1211.643
1005  1108.693
1006  1181.035
1007  1257.361
1008  1139.447
1009  1088.207
1010  993.325
1011  1023.968
1012  966.3984
1013  911.6375
1014  910.4584
1015  938.5083
1016  1035.714
1017  1163.758
1018  1212.704
1019  1118.527
1020  961.8992
1021  869.9315
1022  804.9264
1023  846.3959
