# Input file       =  1209891182.120269_cleaned.dat
# Candidate        =  PSR_0332+5434
# Telescope        =  AR
# Epoch_topo       =  58247.370383336449
# Epoch_bary       =  N/A
# T_sample         =  0.002
# Data Folded      =  7340032
# Data Avg         =  0.315168839812809
# Data StdDev      =  4.22253336127032 
# Profile Bins     =  256
# Profile Avg      =  9042.55206999055 
# Profile StdDev   =  714.993483302075 
# Reduced chi-sqr  =  1.631
# Prob(Noise)      <  7.49e-10   (~6.0 sigma)
# P_topo (ms)      =  714.539005761937  +/- 0.000612
# P'_topo (s/s)    =  -0                +/- 3.23e-10
# P''_topo (s/s^2) =  0                 +/- 1.43e-13
# P_bary (ms)      =  N/A
# P'_bary (s/s)    =  N/A
# P''_bary (s/s^2) =  N/A
# P_orb (s)        =  N/A
# asin(i)/c (s)    =  N/A
# eccentricity     =  N/A
# w (rad)          =  N/A
# T_peri           =  N/A
######################################################
   0  9556.199
   1  9342.535
   2  9772.332
   3  9440.59
   4  9060.427
   5  10096.61
   6  9184.256
   7  9795.809
   8  9554.095
   9  9976.344
  10  9213.218
  11  9167.396
  12  9215.462
  13  8970.459
  14  9151.209
  15  8041.882
  16  8464.477
  17  8742.507
  18  8713.038
  19  8528.803
  20  8698.595
  21  9059.451
  22  8651.747
  23  8958.222
  24  8820.22
  25  8290.209
  26  8406.816
  27  7970.007
  28  8032.587
  29  8687.592
  30  8268.041
  31  8002.382
  32  8986.395
  33  8237.41
  34  7833.74
  35  8188.168
  36  8043.095
  37  7529.75
  38  7592.417
  39  7891.986
  40  8285.014
  41  8540.511
  42  8113.895
  43  8096.965
  44  7532.595
  45  7388.447
  46  7486.062
  47  7202.463
  48  7367.817
  49  7039.272
  50  7608.118
  51  7992.878
  52  8270.442
  53  8425.758
  54  8840.181
  55  8550.534
  56  8043.527
  57  8128.543
  58  8176.389
  59  8775.359
  60  8532.102
  61  8235.607
  62  8948.731
  63  8923.907
  64  8698.931
  65  8159.119
  66  8761.486
  67  8545.55
  68  8092.089
  69  8388.126
  70  8377.711
  71  8679.929
  72  8466.201
  73  9065.22
  74  8915.134
  75  8118.937
  76  8279.7
  77  8211.422
  78  8685.706
  79  8427.216
  80  8592.061
  81  8364.435
  82  8596.789
  83  8934.487
  84  8761.621
  85  8736.557
  86  8417.897
  87  8542.268
  88  8740.027
  89  8313.475
  90  8327.881
  91  8953.355
  92  9475.372
  93  9119.464
  94  9134.863
  95  9115.781
  96  9330.947
  97  8991.725
  98  9095.913
  99  9230.239
 100  9886.353
 101  10258.11
 102  9785.934
 103  9535.308
 104  9844.363
 105  9921.193
 106  9591.739
 107  9145.932
 108  9434.829
 109  8647.446
 110  9788.017
 111  9336.071
 112  9354.874
 113  9266.389
 114  9899.017
 115  10203.36
 116  9230.139
 117  9243.877
 118  9164.867
 119  9861.971
 120  8216.278
 121  8934.61
 122  9186.482
 123  8496.899
 124  9237.464
 125  9135.688
 126  9568.762
 127  9551.261
 128  9209.778
 129  9158.616
 130  9235.351
 131  9034.153
 132  9503.646
 133  9616.999
 134  9279.552
 135  9329.476
 136  8681.811
 137  9888.226
 138  9900.88
 139  9204.601
 140  9377.865
 141  9324.448
 142  9020.594
 143  8770.689
 144  9016.001
 145  9468.13
 146  9409.279
 147  10225.18
 148  10971.39
 149  12644.63
 150  13415.03
 151  10850.37
 152  9360.042
 153  8456.153
 154  8369.217
 155  8685.732
 156  8885.745
 157  8515.981
 158  8540.312
 159  8385.897
 160  8995.127
 161  8674.361
 162  7715.086
 163  8375.803
 164  9416.594
 165  9097.744
 166  8758.22
 167  9106.909
 168  9148.468
 169  9205.755
 170  9809.879
 171  10110.85
 172  9558.547
 173  9270.509
 174  9563.685
 175  9313.841
 176  9891.175
 177  9720.852
 178  9107.249
 179  9328.846
 180  9090.42
 181  9026.735
 182  9591.739
 183  8824.725
 184  9504.739
 185  8864.957
 186  9511.665
 187  9024.867
 188  9496.213
 189  9524.689
 190  9077.408
 191  9045.202
 192  9069.972
 193  9415.227
 194  9022.613
 195  9269.961
 196  8864.415
 197  8778.88
 198  9235.148
 199  9119.261
 200  8744.208
 201  8694.995
 202  8770.896
 203  8941.41
 204  9009.348
 205  8881.899
 206  9402.385
 207  9745.371
 208  9357.818
 209  8934.569
 210  8634.211
 211  9091.544
 212  9033.967
 213  8921.813
 214  8133.306
 215  8035.683
 216  8448.874
 217  8691.674
 218  8113.216
 219  8943.786
 220  8028.563
 221  8500.727
 222  8373.291
 223  8557.668
 224  8625.054
 225  8126.51
 226  8325.776
 227  8699.722
 228  8502.2
 229  8421.354
 230  9765.616
 231  9620.214
 232  9959.501
 233  10138.8
 234  9918.081
 235  10239.67
 236  9661.029
 237  9807.294
 238  10042
 239  10556.77
 240  10736.3
 241  10336.35
 242  10314.31
 243  10259.9
 244  10261.6
 245  9950.52
 246  10175.25
 247  9992.448
 248  10041.04
 249  9555.583
 250  10650.2
 251  9955.413
 252  9799.012
 253  10131.71
 254  10122.56
 255  9929.745
