# Input file       =  1209531821.109581_cleaned.dat
# Candidate        =  PSR_0332+5434
# Telescope        =  AR
# Epoch_topo       =  58243.211112379409
# Epoch_bary       =  N/A
# T_sample         =  0.002
# Data Folded      =  7143424
# Data Avg         =  0.294462077925196
# Data StdDev      =  5.95856400447976 
# Profile Bins     =  1024
# Profile Avg      =  2054.1905868674  
# Profile StdDev   =  497.673876477841 
# Reduced chi-sqr  =  1.129
# Prob(Noise)      <  0.00241   (~2.8 sigma)
# P_topo (ms)      =  714.542886911965  +/- 3.82e-05
# P'_topo (s/s)    =  -0                +/- 2.07e-11
# P''_topo (s/s^2) =  0                 +/- 9.39e-15
# P_bary (ms)      =  N/A
# P'_bary (s/s)    =  N/A
# P''_bary (s/s^2) =  N/A
# P_orb (s)        =  N/A
# asin(i)/c (s)    =  N/A
# eccentricity     =  N/A
# w (rad)          =  N/A
# T_peri           =  N/A
######################################################
   0  1864.805
   1  2185.992
   2  2296.421
   3  2102.743
   4  2078.215
   5  2185.668
   6  2176.146
   7  2101.772
   8  2145.686
   9  1892.936
  10  1781.766
  11  1918.992
  12  1973.547
  13  2037.382
  14  2264.793
  15  2555.954
  16  2504.135
  17  2252.582
  18  2267.201
  19  2280.097
  20  2235.003
  21  2097.156
  22  2084.402
  23  1963.464
  24  1903.841
  25  1857.53
  26  1890.623
  27  1872.774
  28  1837.471
  29  1820.732
  30  1762.676
  31  1780.627
  32  1756.235
  33  2032.38
  34  2105.111
  35  1970.699
  36  1932.158
  37  2028.439
  38  2117.531
  39  2094.333
  40  2155.462
  41  2139.819
  42  1941.595
  43  2010.179
  44  1945.512
  45  1875.553
  46  1806.771
  47  2177.681
  48  2270.729
  49  2176.809
  50  2124.969
  51  2285.002
  52  2248.544
  53  2224.164
  54  2325.18
  55  2282.572
  56  2263.302
  57  2275.055
  58  2274.003
  59  2167.653
  60  1951.693
  61  1797.892
  62  1774.978
  63  1576.895
  64  1486.845
  65  1697.857
  66  1990.163
  67  2228.434
  68  2070.626
  69  2086.735
  70  2201.378
  71  2102.62
  72  2033.474
  73  1984.698
  74  1919.415
  75  1916.11
  76  2054.921
  77  2021.787
  78  1922.379
  79  1996.404
  80  2202.75
  81  2299.965
  82  2239.624
  83  2318.22
  84  2361.37
  85  2323.448
  86  2094.727
  87  1964.299
  88  1850.721
  89  1839.851
  90  1825.77
  91  1674.796
  92  1606.084
  93  1583.89
  94  1640.283
  95  1706.144
  96  1812.073
  97  1968.103
  98  2341.881
  99  2482.594
 100  2295.098
 101  2052.675
 102  1995.133
 103  1992.803
 104  1950.823
 105  2048.805
 106  2003.496
 107  1813.931
 108  1807.723
 109  1969.832
 110  2063.027
 111  2055.172
 112  2257.86
 113  2325.392
 114  2377.976
 115  2487.497
 116  2579.508
 117  2403.821
 118  2122.08
 119  2105.522
 120  1992.597
 121  2034.182
 122  1960.967
 123  1856.768
 124  1631.848
 125  1457.072
 126  1334.453
 127  1494.243
 128  1531.807
 129  1635.655
 130  1773.293
 131  1926.532
 132  2209.623
 133  2090.046
 134  2154.043
 135  2108.227
 136  1962.902
 137  1818.82
 138  1739.662
 139  1588.477
 140  1501.696
 141  1657.664
 142  1733.021
 143  1678.813
 144  1827.116
 145  2014.524
 146  2008.708
 147  1985.65
 148  2154.764
 149  2350.818
 150  2305.722
 151  2261.21
 152  2222.024
 153  2094.531
 154  1907.795
 155  1755.473
 156  1627.24
 157  1680.448
 158  1836.26
 159  1891.504
 160  1839.622
 161  1674.354
 162  1611.521
 163  1876.698
 164  1928.922
 165  1789.063
 166  1783.741
 167  2061.007
 168  2128.531
 169  1936.91
 170  1943.469
 171  2190.887
 172  2119.92
 173  2005.752
 174  1838.586
 175  1646.134
 176  1587.27
 177  1673.827
 178  1749.621
 179  1719.763
 180  1934.932
 181  2302.89
 182  2426.941
 183  2270.177
 184  2154.098
 185  1961.028
 186  1978.826
 187  1970.852
 188  1881.865
 189  1805.317
 190  1741.801
 191  1653.176
 192  1473.054
 193  1305.513
 194  1352.418
 195  1501.934
 196  1539.331
 197  1686.751
 198  1595.058
 199  1869.448
 200  2146.361
 201  2337.78
 202  2183.866
 203  1959.362
 204  1857.245
 205  2048.367
 206  2217.812
 207  1926.485
 208  1707.485
 209  1850.725
 210  2038.542
 211  1888.202
 212  1925.065
 213  2116.788
 214  2444.446
 215  2401.965
 216  2431.403
 217  2325.319
 218  2183.094
 219  2115.146
 220  1977.997
 221  1831.212
 222  1733.014
 223  1851.386
 224  1925.039
 225  1974.613
 226  1777.067
 227  1663.03
 228  1902.534
 229  2057.955
 230  2022.734
 231  1934.378
 232  2080.603
 233  2182.793
 234  2172.743
 235  2073.351
 236  2095.195
 237  1969.304
 238  2047.371
 239  2064.515
 240  2071.563
 241  2031.991
 242  2045.754
 243  2027.392
 244  2055.513
 245  2215.643
 246  2383.555
 247  2345.169
 248  2393.53
 249  2491.144
 250  2517.86
 251  2444.829
 252  2368.637
 253  2195.48
 254  2200.877
 255  2226.522
 256  2245.537
 257  1909.653
 258  1702.719
 259  1641.136
 260  1681.899
 261  1780.448
 262  1939.466
 263  2151.522
 264  2333.914
 265  2468.302
 266  2263.224
 267  2282.223
 268  2466.543
 269  2515.042
 270  2326.57
 271  2149.286
 272  1888.592
 273  1812.968
 274  1969.232
 275  2156.698
 276  2101.412
 277  2188.486
 278  2347.799
 279  2505.622
 280  2427.095
 281  2550.516
 282  2576.484
 283  2552.308
 284  2342.472
 285  2311.066
 286  1981.555
 287  1888.301
 288  1873.13
 289  1986.508
 290  1948.653
 291  1823.694
 292  1549.543
 293  1693.229
 294  1671.603
 295  1881.999
 296  2048.524
 297  2338.291
 298  2403.462
 299  2302.35
 300  2361.013
 301  2411.801
 302  2204.021
 303  2177.268
 304  2184.726
 305  2107.804
 306  2053.143
 307  2115.298
 308  2055.718
 309  1912.618
 310  2111.407
 311  2277.347
 312  2464.859
 313  2542.506
 314  2618.73
 315  2571.903
 316  2362.487
 317  2439.441
 318  2322.594
 319  2316.718
 320  2213.42
 321  2132.69
 322  1929.911
 323  1730.632
 324  1634.637
 325  1626.354
 326  1573.571
 327  1578.016
 328  1735.231
 329  1959.852
 330  2119.193
 331  1989.979
 332  2164.518
 333  2318.092
 334  2161.089
 335  1963.705
 336  1915.428
 337  1885.93
 338  1869.755
 339  1884.778
 340  1894.021
 341  1727.431
 342  1731.061
 343  1840.611
 344  1789.856
 345  1838.268
 346  2130.892
 347  2372.376
 348  2311.988
 349  2363.885
 350  2392.581
 351  2115.271
 352  1924.734
 353  2042.631
 354  1992.29
 355  1930.944
 356  1857.745
 357  1884.686
 358  1691.828
 359  1348.853
 360  1336.46
 361  1597.88
 362  1835.608
 363  1974.136
 364  1970.46
 365  2109.412
 366  2117.971
 367  2172.453
 368  2188.882
 369  2110.533
 370  1886.507
 371  1931.964
 372  2098.208
 373  1789.862
 374  1674.473
 375  1763.261
 376  2039.707
 377  2039.44
 378  2186.791
 379  2483.576
 380  2464.917
 381  2268.341
 382  2095
 383  2032.278
 384  2006.398
 385  2021.522
 386  1990.83
 387  1943.518
 388  1797.564
 389  1726.489
 390  1692.159
 391  1654.373
 392  1630.662
 393  1610.894
 394  1784.631
 395  1945.97
 396  1804.922
 397  1915.832
 398  1946.837
 399  1915.365
 400  1903.002
 401  1919.282
 402  1977.45
 403  2008.213
 404  2116.536
 405  2176.834
 406  1921.17
 407  1970.049
 408  1976.11
 409  1910.727
 410  1961.62
 411  2284.698
 412  2500.866
 413  2236.202
 414  2115.866
 415  2229.321
 416  2251.323
 417  2238.213
 418  2162.835
 419  1790.592
 420  1560.253
 421  1567.306
 422  1580.66
 423  1585.4
 424  1546.749
 425  1712.44
 426  1915.322
 427  1937.904
 428  1941.932
 429  2012.186
 430  2133.984
 431  2299.02
 432  2161.958
 433  2111.799
 434  2179.782
 435  2170.195
 436  2212.001
 437  2219.365
 438  2030.978
 439  1864.827
 440  2045.135
 441  2068.238
 442  2037.496
 443  2014.393
 444  2277.255
 445  2423.666
 446  2613.14
 447  2771.172
 448  2729.274
 449  2371.758
 450  2078.287
 451  1958.669
 452  1918.844
 453  1926.065
 454  1874.125
 455  1686.849
 456  1571.285
 457  1663.707
 458  1756.382
 459  2075.697
 460  2040.693
 461  2164.052
 462  2307.867
 463  2612.405
 464  2442.739
 465  2245.086
 466  2087.819
 467  2073.402
 468  1930.284
 469  1841.069
 470  1742.897
 471  1809.355
 472  2121.129
 473  2355.539
 474  2304.276
 475  2202.805
 476  2345.632
 477  2600.626
 478  2561.696
 479  2439.924
 480  2447.304
 481  2419.332
 482  2380.056
 483  2333.248
 484  2176.763
 485  2104.847
 486  2035.37
 487  2028.01
 488  2024.491
 489  1856.112
 490  1898.65
 491  2040.577
 492  1941.445
 493  1808.447
 494  1778.788
 495  2018.515
 496  2232.422
 497  2115.458
 498  2289.441
 499  2463.305
 500  2349.842
 501  2208.785
 502  2177.211
 503  1882.642
 504  1791.403
 505  1998.89
 506  1981.354
 507  1685.99
 508  1849.007
 509  2264.007
 510  2454.295
 511  2439.112
 512  2689.83
 513  2895.936
 514  2740.208
 515  2526.773
 516  2445.638
 517  2214.987
 518  2097.526
 519  2138.598
 520  2252.368
 521  2177.553
 522  1905.536
 523  1783.99
 524  1809.482
 525  1650.517
 526  1733.522
 527  1928.894
 528  2175.482
 529  2098.812
 530  2342.673
 531  2580.039
 532  2517.416
 533  2271.973
 534  2158.483
 535  2355.996
 536  2206.806
 537  2249.499
 538  2154.615
 539  1984.587
 540  1894.081
 541  2069.219
 542  2225.693
 543  2226.741
 544  2360.948
 545  2603.35
 546  2564.49
 547  2397.327
 548  2275.105
 549  2162.573
 550  2171.093
 551  2173.047
 552  2207.1
 553  2151.344
 554  2000.826
 555  2021.237
 556  1920.848
 557  1816.22
 558  1797.051
 559  2000.4
 560  2173.324
 561  2161.272
 562  2115.189
 563  2219.018
 564  2445.371
 565  2210.37
 566  1929.916
 567  1897.889
 568  2057.893
 569  2201.736
 570  2457.776
 571  2212.022
 572  2127.895
 573  2202.693
 574  2224.295
 575  2175.366
 576  2079.254
 577  2529.092
 578  2704.942
 579  2629.313
 580  2699.016
 581  2672.915
 582  2458.032
 583  2238.907
 584  2255.045
 585  2212.466
 586  2146.225
 587  2092.657
 588  2128.956
 589  2082.789
 590  1990.586
 591  2095.601
 592  2424.221
 593  2563.459
 594  2450.818
 595  2472.516
 596  2597.427
 597  2665.573
 598  2663.707
 599  2809.826
 600  3112.616
 601  3180.946
 602  3195.341
 603  3237.587
 604  3069.874
 605  3063.106
 606  2945.63
 607  2751.605
 608  2450.258
 609  2548.704
 610  2719.193
 611  2865.788
 612  2674.644
 613  2521.083
 614  2302.067
 615  2196.021
 616  2174.297
 617  2080.158
 618  2005.008
 619  1902.433
 620  2004.316
 621  1926.193
 622  1776.623
 623  1666.17
 624  1852.869
 625  2115.037
 626  2241.197
 627  2330.235
 628  2509.708
 629  2656.316
 630  2340.607
 631  2166.249
 632  2202.748
 633  2237.325
 634  2102.433
 635  2094.228
 636  2031.616
 637  1842.409
 638  1902.171
 639  2034.958
 640  2006.354
 641  1853.229
 642  2169.955
 643  2408.564
 644  2458.375
 645  2574.921
 646  2580.357
 647  2522.956
 648  2257.411
 649  2271.797
 650  1981.009
 651  1909.923
 652  1791.354
 653  1750.433
 654  1681.536
 655  1484.456
 656  1436.205
 657  1555.627
 658  1725.399
 659  1723.554
 660  1993.819
 661  2153.898
 662  2236.365
 663  2149.281
 664  2410.929
 665  2510.019
 666  2168.907
 667  2017.21
 668  2076.473
 669  1904.865
 670  1698.444
 671  1778.465
 672  1871.435
 673  1823.097
 674  2069.666
 675  2473.508
 676  2713.027
 677  2658.85
 678  2710.279
 679  2630.862
 680  2508.627
 681  2292.6
 682  2243.675
 683  2083.772
 684  2029.879
 685  1917.046
 686  1854.483
 687  1701.931
 688  1662.637
 689  1683.972
 690  1555.417
 691  1546.993
 692  1675.571
 693  2150.242
 694  2375.558
 695  2238.891
 696  2256.471
 697  2313.174
 698  2201.811
 699  2112.604
 700  2002.068
 701  2132.638
 702  2059.257
 703  2149.429
 704  1955.193
 705  1787.838
 706  1771.858
 707  2131.915
 708  2208.656
 709  2164.129
 710  2357.876
 711  2648.497
 712  2415.639
 713  2196.932
 714  2134.079
 715  2010.421
 716  1951.805
 717  2012.472
 718  2083.594
 719  2040.465
 720  1810.933
 721  1787.223
 722  1802.177
 723  1843.087
 724  1784.007
 725  1929.215
 726  2034.727
 727  2113.87
 728  2052.689
 729  2081.899
 730  2135.346
 731  1992.445
 732  2026.644
 733  2068.22
 734  1928.719
 735  2043.947
 736  2334.034
 737  2230.003
 738  2029.769
 739  2000.278
 740  2211.731
 741  2241.117
 742  2340.949
 743  2620.064
 744  2563.358
 745  2486.231
 746  2328.372
 747  2207.517
 748  2139.86
 749  2030.484
 750  1916.391
 751  1717.195
 752  1565.251
 753  1672.545
 754  1751.522
 755  1900.34
 756  1864.143
 757  1925.326
 758  2202.204
 759  2377.548
 760  2149.477
 761  2070.096
 762  1971.721
 763  1886.66
 764  1744.08
 765  1742.398
 766  1834.034
 767  1972.611
 768  2294.043
 769  2359.478
 770  2139.993
 771  1980.904
 772  2084.039
 773  2160.366
 774  2129.776
 775  2321.293
 776  2516.094
 777  2473.296
 778  2321.147
 779  2245.869
 780  1955.047
 781  1708.087
 782  1596.461
 783  1584.926
 784  1684.108
 785  1575.76
 786  1494.228
 787  1396.381
 788  1351.566
 789  1426.384
 790  1692.291
 791  1849.956
 792  1882.678
 793  1798.977
 794  1866.443
 795  2060.229
 796  1888.161
 797  1900.019
 798  1870.302
 799  1854.813
 800  1693.289
 801  1726.719
 802  1558.14
 803  1558.026
 804  1809.413
 805  2049.305
 806  2046.275
 807  1979.209
 808  2158.89
 809  2282.226
 810  2332.455
 811  2358.327
 812  2322.242
 813  2158.639
 814  1757.689
 815  1653.566
 816  1750.265
 817  1836.899
 818  1772.077
 819  1531.763
 820  1559.228
 821  1503.816
 822  1558.256
 823  1772.032
 824  1793.067
 825  1784.98
 826  2033.697
 827  2367.902
 828  2345.866
 829  2112.645
 830  2040.245
 831  1904.152
 832  1705.293
 833  1535.451
 834  1651.012
 835  1477.051
 836  1468.838
 837  1588.28
 838  1773.609
 839  1698.527
 840  1999.889
 841  2335.347
 842  2451.145
 843  2319.884
 844  2321.288
 845  2216.172
 846  2032.608
 847  1925.485
 848  1824.951
 849  1753.981
 850  1681.333
 851  1678.672
 852  1592.102
 853  1315.074
 854  1331.413
 855  1393.657
 856  1393.084
 857  1347.862
 858  1510.724
 859  1880.319
 860  2109.157
 861  1947.811
 862  2024.77
 863  2112.184
 864  2084.825
 865  2028.555
 866  2081.678
 867  1946.54
 868  1860.346
 869  1997.649
 870  2056.849
 871  1948.597
 872  2089.378
 873  2377.863
 874  2498.501
 875  2302.106
 876  2379.581
 877  2452.317
 878  2364.518
 879  2206.72
 880  1983.779
 881  1855.465
 882  1742.805
 883  1918.973
 884  1980.994
 885  2056.024
 886  1878.324
 887  1798.052
 888  1773.194
 889  1705.225
 890  1628.237
 891  1829.681
 892  1938.615
 893  1949.624
 894  1901.037
 895  1845.708
 896  1844.909
 897  1830.065
 898  2135.264
 899  2305.927
 900  2255.554
 901  2273.734
 902  2353.58
 903  2113.99
 904  1997.291
 905  2099.763
 906  2378.629
 907  2291.642
 908  2419.418
 909  2485.665
 910  2370.818
 911  2270.427
 912  2220.681
 913  2052.437
 914  1963.483
 915  1990.324
 916  2107.515
 917  2052.496
 918  2058.384
 919  2124.681
 920  2017.724
 921  1861.607
 922  1783.335
 923  1942.732
 924  2043.906
 925  2036.763
 926  1853.63
 927  2025.607
 928  2246.653
 929  2103.724
 930  1972.76
 931  2012.614
 932  1978.562
 933  1910.216
 934  2036.192
 935  2069.754
 936  1845.481
 937  1819.904
 938  2053.465
 939  2267.64
 940  2310.278
 941  2473.029
 942  2623.363
 943  2489.319
 944  2265.018
 945  2125.912
 946  1949.213
 947  1779.834
 948  1708.382
 949  1672.271
 950  1770.67
 951  1892.857
 952  1927.177
 953  2072.373
 954  1954.401
 955  1925.336
 956  2163.578
 957  2389.231
 958  2196.855
 959  1945.885
 960  1877.721
 961  2007.186
 962  1781.423
 963  1650.297
 964  1645.832
 965  1634.557
 966  1820.613
 967  1992.126
 968  2038.126
 969  2084.424
 970  2329.478
 971  2443.536
 972  2327.335
 973  2290.453
 974  2477.653
 975  2558.391
 976  2434.311
 977  2150.539
 978  1811.034
 979  1756.708
 980  1707.224
 981  1845.527
 982  1851.962
 983  1966.529
 984  1882.071
 985  1791.908
 986  1733.23
 987  1651.08
 988  1868.88
 989  2110.983
 990  2302.697
 991  2045.562
 992  2118.781
 993  2418.562
 994  2350.157
 995  2054.778
 996  1859.843
 997  1755.309
 998  1781.247
 999  1781.821
1000  1804.009
1001  1600.775
1002  1806.348
1003  2102.049
1004  2199.201
1005  2053.543
1006  2384.842
1007  2667.504
1008  2650.224
1009  2394.773
1010  2380.43
1011  2193.935
1012  2097.539
1013  1991.535
1014  1908.806
1015  1809.654
1016  1780.465
1017  1756.119
1018  1884.663
1019  1781.213
1020  1756.782
1021  1901.916
1022  1871.547
1023  1787.636
