# Input file       =  1210307400.123657_cleaned.dat
# Candidate        =  PSR_0332+5434
# Telescope        =  AR
# Epoch_topo       =  58252.187721338625
# Epoch_bary       =  N/A
# T_sample         =  0.002
# Data Folded      =  7208960
# Data Avg         =  0.213113277727231
# Data StdDev      =  5.33746762327976 
# Profile Bins     =  1024
# Profile Avg      =  1500.3217515769  
# Profile StdDev   =  447.838661609402 
# Reduced chi-sqr  =  0.854
# Prob(Noise)      <  1   (~0.0 sigma)
# P_topo (ms)      =  714.53436845543   +/- 4.46e-05
# P'_topo (s/s)    =  -0                +/- 2.39e-11
# P''_topo (s/s^2) =  0                 +/- 1.08e-14
# P_bary (ms)      =  N/A
# P'_bary (s/s)    =  N/A
# P''_bary (s/s^2) =  N/A
# P_orb (s)        =  N/A
# asin(i)/c (s)    =  N/A
# eccentricity     =  N/A
# w (rad)          =  N/A
# T_peri           =  N/A
######################################################
   0  1079.137
   1  1037.892
   2  1220.385
   3  1291.104
   4  1330.161
   5  1341.912
   6  1431.673
   7  1441.856
   8  1578.395
   9  1611.236
  10  1524.074
  11  1348.125
  12  1347.156
  13  1549.089
  14  1654.968
  15  1613.834
  16  1357.886
  17  1195.479
  18  1021.616
  19  1055.464
  20  1273.465
  21  1420.091
  22  1457.262
  23  1480.251
  24  1490.364
  25  1487.298
  26  1336.603
  27  1398.073
  28  1445.615
  29  1555.657
  30  1615.626
  31  1610.569
  32  1433.101
  33  1205.927
  34  988.829
  35  1001.968
  36  1022
  37  1228.599
  38  1173.07
  39  1213.641
  40  1220.935
  41  1279.1
  42  1208.519
  43  1296.452
  44  1408.027
  45  1581.023
  46  1552.81
  47  1572.297
  48  1441.552
  49  1420.333
  50  1360.99
  51  1327.37
  52  1450.214
  53  1296.242
  54  1425.165
  55  1396.8
  56  1466.434
  57  1332.742
  58  1073.651
  59  1014.75
  60  1095.121
  61  1251.719
  62  1442.167
  63  1225.22
  64  1150.433
  65  1065.349
  66  1212.393
  67  1326.582
  68  1338.27
  69  1503.725
  70  1513.027
  71  1512.701
  72  1598.265
  73  1353.262
  74  1284.362
  75  1052.05
  76  1080.555
  77  1229.064
  78  1134.84
  79  1369.984
  80  1244.913
  81  1365.218
  82  1292.054
  83  1081.564
  84  1173.61
  85  1254.964
  86  1441.04
  87  1630.909
  88  1595.257
  89  1671.966
  90  1458.381
  91  1459.596
  92  1407.32
  93  1211.935
  94  1228.312
  95  1355.78
  96  1359.28
  97  1415.854
  98  1180.648
  99  1373.275
 100  1345.147
 101  1506.015
 102  1602.781
 103  1662.254
 104  1656.581
 105  1552.57
 106  1449.629
 107  1421.56
 108  1087.032
 109  1095.142
 110  1021.682
 111  1140.758
 112  1214.541
 113  1218.017
 114  1549.143
 115  1559.482
 116  1643.254
 117  1551.922
 118  1413.479
 119  1527.079
 120  1590.802
 121  1804.597
 122  1680.195
 123  1471.829
 124  1482.451
 125  1315.354
 126  1232.827
 127  1287.221
 128  1449.05
 129  1517.989
 130  1283.623
 131  1378.877
 132  1390.806
 133  1398.108
 134  1478.282
 135  1561.635
 136  1594.574
 137  1570.546
 138  1653.295
 139  1855.28
 140  1545.981
 141  1452.308
 142  1453.799
 143  1538.048
 144  1587.29
 145  1485.097
 146  1442.922
 147  1280.457
 148  1129.978
 149  1281.016
 150  1243.887
 151  1380.924
 152  1477.698
 153  1740.04
 154  1841.019
 155  1675.266
 156  1664.153
 157  1609.436
 158  1492.51
 159  1429.01
 160  1503.96
 161  1532.495
 162  1488.313
 163  1407.592
 164  1437.913
 165  1138.395
 166  1033.545
 167  1089.97
 168  1351.727
 169  1628.128
 170  1706.728
 171  1808.799
 172  1587.66
 173  1529.715
 174  1480.799
 175  1544.003
 176  1571.86
 177  1542.755
 178  1454.407
 179  1384.259
 180  1398.433
 181  1445.375
 182  1437.247
 183  1309.544
 184  1342.97
 185  1394.519
 186  1471.67
 187  1372.036
 188  1451.997
 189  1523.814
 190  1394.496
 191  1173.723
 192  1262.153
 193  1423.038
 194  1585.742
 195  1589.518
 196  1664.475
 197  1505.798
 198  1246.553
 199  1216.398
 200  1249.408
 201  1380.795
 202  1486.216
 203  1631.398
 204  1548.528
 205  1293.942
 206  1258.865
 207  1342.474
 208  1412.377
 209  1298.349
 210  1429.768
 211  1479.318
 212  1476.429
 213  1506.502
 214  1459.409
 215  1401.828
 216  1209.206
 217  1371.194
 218  1552.297
 219  1533.911
 220  1507.608
 221  1492.413
 222  1498.68
 223  1294.76
 224  1097.849
 225  1212.249
 226  1189.621
 227  1285.779
 228  1359.08
 229  1257.606
 230  1189.376
 231  1071.505
 232  1285.141
 233  1308.059
 234  1355.079
 235  1520.328
 236  1523.699
 237  1445.898
 238  1316.502
 239  1214.598
 240  1180.308
 241  1067.429
 242  1143.115
 243  1214.677
 244  1144.637
 245  1261.369
 246  1134.557
 247  1384.858
 248  1433.597
 249  1568.46
 250  1544.417
 251  1474.559
 252  1576.049
 253  1617.905
 254  1528.534
 255  1306.365
 256  1089.983
 257  1152.578
 258  1096.875
 259  1012.879
 260  1093.444
 261  1216.542
 262  1358.332
 263  1228.336
 264  1189.872
 265  1358.909
 266  1481.512
 267  1683.413
 268  1722.795
 269  1720.067
 270  1718.402
 271  1461.323
 272  1439.702
 273  1249.507
 274  975.8202
 275  979.9131
 276  1004.549
 277  1261.278
 278  1246.801
 279  1158.255
 280  1314.686
 281  1223.725
 282  1390.353
 283  1393.302
 284  1563.029
 285  1646.258
 286  1663.689
 287  1908.361
 288  1799.038
 289  1548.184
 290  1501.077
 291  1283.992
 292  1219.625
 293  1108.32
 294  1225.094
 295  1238.332
 296  1107.705
 297  1382.726
 298  1523.232
 299  1521.408
 300  1549.909
 301  1469.854
 302  1603.766
 303  1481.255
 304  1445.29
 305  1428.932
 306  1293.405
 307  1387.422
 308  1252.436
 309  1360.361
 310  1440.373
 311  1579.2
 312  1626.951
 313  1476.149
 314  1399.627
 315  1454.003
 316  1342.558
 317  1415.556
 318  1413.99
 319  1640.871
 320  1592.602
 321  1417.195
 322  1506.559
 323  1385.417
 324  1396.711
 325  1242.558
 326  1494.717
 327  1571.912
 328  1371.081
 329  1348.439
 330  1408.353
 331  1403.414
 332  1332.951
 333  1179.476
 334  1382.317
 335  1356.922
 336  1395.435
 337  1381.974
 338  1241.66
 339  1212.069
 340  1304.899
 341  1430.743
 342  1603.646
 343  1418.978
 344  1392.635
 345  1313.569
 346  1295.582
 347  1443.582
 348  1414.333
 349  1429.895
 350  1469.552
 351  1658.442
 352  1780.667
 353  1570.418
 354  1459.874
 355  1446.286
 356  1385.178
 357  1357.315
 358  1478.591
 359  1677.712
 360  1693.372
 361  1622.499
 362  1611.901
 363  1362.769
 364  1285.886
 365  1451.922
 366  1626.189
 367  1587.68
 368  1461.059
 369  1551.023
 370  1466.849
 371  1320.751
 372  1201.997
 373  1346.353
 374  1325.357
 375  1404.622
 376  1523.828
 377  1718.586
 378  1785.225
 379  1712.876
 380  1608.594
 381  1472.343
 382  1320.957
 383  1484.986
 384  1547.495
 385  1496.354
 386  1371.393
 387  1471.233
 388  1613.78
 389  1471.146
 390  1461.88
 391  1623.431
 392  1698.568
 393  1683.863
 394  1684.558
 395  1704.102
 396  1643.058
 397  1477.859
 398  1421.483
 399  1357.202
 400  1363.071
 401  1569.087
 402  1584.139
 403  1598.575
 404  1448.77
 405  1334.599
 406  1212.203
 407  1153.663
 408  1484.958
 409  1618.089
 410  1743.342
 411  1790.102
 412  1586.232
 413  1625.197
 414  1458.65
 415  1642.215
 416  1699.363
 417  1719.124
 418  1908.671
 419  1688.591
 420  1726.64
 421  1444.508
 422  1191.529
 423  1229.335
 424  1138.741
 425  1323.826
 426  1430.919
 427  1478.353
 428  1474.453
 429  1354.001
 430  1480.755
 431  1603.315
 432  1639.239
 433  1892.106
 434  1839.144
 435  1857.965
 436  1798.488
 437  1617.568
 438  1618.23
 439  1317.567
 440  1407.224
 441  1376.034
 442  1376.297
 443  1448.034
 444  1345.703
 445  1444.492
 446  1480.76
 447  1472.286
 448  1684.533
 449  1475.879
 450  1675.818
 451  1671.97
 452  1745.038
 453  1751.763
 454  1496.124
 455  1585.9
 456  1574.335
 457  1495.826
 458  1553.007
 459  1392.528
 460  1594.877
 461  1497.303
 462  1350.333
 463  1345.385
 464  1185.922
 465  1421.971
 466  1555.814
 467  1633.383
 468  1620.168
 469  1413.682
 470  1553.921
 471  1407.041
 472  1331.195
 473  1318.969
 474  1308.427
 475  1387.962
 476  1340.005
 477  1286.312
 478  1436.194
 479  1432.828
 480  1552.389
 481  1592.266
 482  1601.279
 483  1749.367
 484  1812.387
 485  1975.378
 486  1583.404
 487  1307.187
 488  1235.176
 489  1215.708
 490  1306.051
 491  1234.372
 492  1196.456
 493  1067.073
 494  934.2292
 495  1276.476
 496  1473.557
 497  1554.534
 498  1591.922
 499  1493.006
 500  1663.66
 501  1601.983
 502  1715.95
 503  1623.558
 504  1372.956
 505  1317.557
 506  1280.827
 507  1320.874
 508  1321.651
 509  1239.065
 510  1283.962
 511  1107.378
 512  1100.993
 513  1273.718
 514  1371.664
 515  1590.86
 516  1545.105
 517  1667.714
 518  1650.205
 519  1465.905
 520  1387.578
 521  1254.013
 522  1268.315
 523  1244.025
 524  1343.681
 525  1477.603
 526  1466.01
 527  1492.458
 528  1551.196
 529  1435.773
 530  1358.848
 531  1298.858
 532  1478.09
 533  1513.82
 534  1639.762
 535  1759.899
 536  1716.728
 537  1515.777
 538  1359.314
 539  1348.584
 540  1518.936
 541  1611.175
 542  1595.597
 543  1572.634
 544  1568.388
 545  1530.485
 546  1610.787
 547  1568.453
 548  1620.641
 549  1764.247
 550  1811.798
 551  1580.985
 552  1295.578
 553  1268.609
 554  1298.676
 555  1339.72
 556  1494.875
 557  1645.72
 558  1625.523
 559  1536.462
 560  1562.984
 561  1677.514
 562  1510.914
 563  1547.928
 564  1591.866
 565  1680.22
 566  1688.922
 567  1695.406
 568  1638.042
 569  1595.239
 570  1402.341
 571  1399.352
 572  1199.765
 573  1176.365
 574  1207.644
 575  1236.015
 576  1426.213
 577  1551.521
 578  1601.293
 579  1547.312
 580  1468.018
 581  1581.267
 582  1754.054
 583  1725.956
 584  1662.665
 585  1470.59
 586  1449.77
 587  1325.844
 588  1263.7
 589  1491.9
 590  1489.17
 591  1685.74
 592  1786.566
 593  2030.777
 594  2270.604
 595  2221.026
 596  2447.344
 597  2415.704
 598  2594.335
 599  2736.579
 600  2686.138
 601  2601.253
 602  2436.962
 603  2285.77
 604  2131.648
 605  1718.206
 606  1694.053
 607  1520.316
 608  1538.5
 609  1560.57
 610  1387.97
 611  1465.821
 612  1372.238
 613  1537.972
 614  1712.664
 615  1601.388
 616  1706.667
 617  1543.206
 618  1573.389
 619  1329.528
 620  1070.125
 621  1292.915
 622  1266.764
 623  1285.336
 624  1121.096
 625  1224.538
 626  1499.08
 627  1498.426
 628  1483.031
 629  1554.725
 630  1571.429
 631  1792.714
 632  1778.855
 633  1714.932
 634  1580.931
 635  1257.347
 636  1292.12
 637  1011.699
 638  1078.055
 639  1159.639
 640  1182.756
 641  1338.688
 642  1307.597
 643  1400.742
 644  1315.814
 645  1212.114
 646  1380.418
 647  1479.227
 648  1619.674
 649  1520.005
 650  1470.059
 651  1531.276
 652  1433.72
 653  1355.711
 654  1292.97
 655  1175.51
 656  1250.99
 657  1049.74
 658  1128.089
 659  1161.972
 660  1049.275
 661  1156.802
 662  967.8716
 663  1254.759
 664  1262.667
 665  1497.677
 666  1557.178
 667  1496.501
 668  1602.905
 669  1656.443
 670  1458.498
 671  1332.144
 672  1297.597
 673  1506.329
 674  1532.054
 675  1415.988
 676  1324.502
 677  1085.437
 678  1035.589
 679  1124.45
 680  1216.727
 681  1391.328
 682  1431.935
 683  1640.844
 684  1529.824
 685  1312.869
 686  1332.367
 687  1335.276
 688  1489.507
 689  1519.123
 690  1676.422
 691  1740.304
 692  1503.307
 693  1519.611
 694  1424.971
 695  1425.591
 696  1305.16
 697  1212.851
 698  1331.795
 699  1381.68
 700  1572.469
 701  1607.781
 702  1465.254
 703  1533.22
 704  1540.686
 705  1594.719
 706  1537.177
 707  1472.756
 708  1492.32
 709  1410.78
 710  1378.294
 711  1341.323
 712  1425.438
 713  1500.955
 714  1576.197
 715  1669.023
 716  1735.348
 717  1585.517
 718  1463.979
 719  1334.862
 720  1390.861
 721  1203.87
 722  1255.395
 723  1322.937
 724  1390.12
 725  1418.66
 726  1447.929
 727  1623.031
 728  1651.731
 729  1638.099
 730  1683.139
 731  1736.837
 732  1781.674
 733  1666.487
 734  1466.856
 735  1317.558
 736  1164.683
 737  1419.8
 738  1516.205
 739  1660.997
 740  1614.555
 741  1527.626
 742  1633.22
 743  1527.016
 744  1679.564
 745  1647.625
 746  1613.693
 747  1680.149
 748  1665.234
 749  1663.902
 750  1429.328
 751  1413.045
 752  1495.317
 753  1479.115
 754  1615.116
 755  1875.314
 756  1926.896
 757  1847.032
 758  1633.128
 759  1637.418
 760  1549.685
 761  1529.946
 762  1753.475
 763  1711.639
 764  1916.351
 765  1923.872
 766  1842.927
 767  1600.338
 768  1256.045
 769  1370.073
 770  1412.743
 771  1458.415
 772  1583.86
 773  1565.628
 774  1622.689
 775  1569.246
 776  1596.486
 777  1838.894
 778  1688.144
 779  1851.681
 780  1925.058
 781  2011.047
 782  2049.727
 783  1791.374
 784  1668.566
 785  1419.916
 786  1318.883
 787  1587.727
 788  1502.685
 789  1537.394
 790  1347.585
 791  1520.114
 792  1654.202
 793  1534.055
 794  1620.372
 795  1604.022
 796  1707.911
 797  1747.06
 798  1637.138
 799  1721.765
 800  1591.85
 801  1537.216
 802  1621.261
 803  1503.806
 804  1672.987
 805  1589.866
 806  1683.606
 807  1780.503
 808  1727.232
 809  1781.397
 810  1555.218
 811  1598.065
 812  1755.032
 813  1991.988
 814  2182.608
 815  2108.001
 816  1918.177
 817  1765.505
 818  1495.806
 819  1663.625
 820  1648.605
 821  1608.944
 822  1442.353
 823  1429.199
 824  1634.771
 825  1538.257
 826  1498.959
 827  1461.324
 828  1490.984
 829  1644.878
 830  1847.787
 831  2050.126
 832  2145.93
 833  1969.17
 834  1952.097
 835  1563.067
 836  1517.553
 837  1489.283
 838  1624.146
 839  1685.081
 840  1772.654
 841  1833.666
 842  1872.014
 843  1658.536
 844  1621.411
 845  1657.771
 846  1871.868
 847  1951.58
 848  2099.646
 849  2106.217
 850  1786.024
 851  1543.764
 852  1544.017
 853  1672.732
 854  1642.803
 855  1603.201
 856  1775.213
 857  1661.04
 858  1489.744
 859  1469.326
 860  1494.067
 861  1553.488
 862  1651.973
 863  1739.038
 864  1793.243
 865  1759.159
 866  1883.605
 867  1761.636
 868  1594.371
 869  1586.533
 870  1765.8
 871  1879.309
 872  1849.882
 873  1885.044
 874  1898.297
 875  1896.279
 876  1784.245
 877  1747.518
 878  1710.244
 879  1753.698
 880  1757.348
 881  1863.723
 882  1828.881
 883  1722.617
 884  1608.923
 885  1662.833
 886  1598.832
 887  1607.642
 888  1739.681
 889  1807.25
 890  1690.598
 891  1583.927
 892  1561.383
 893  1681.92
 894  1556.487
 895  1526.733
 896  1493.794
 897  1701.183
 898  1771.489
 899  1634.898
 900  1483.437
 901  1495.828
 902  1508.58
 903  1524.02
 904  1593.95
 905  1679.088
 906  1748.118
 907  1739.31
 908  1823.261
 909  1645.879
 910  1668.55
 911  1682.465
 912  1744.691
 913  1731.469
 914  1608.577
 915  1663.714
 916  1523.465
 917  1446.469
 918  1443.649
 919  1343.598
 920  1437.177
 921  1489.067
 922  1683.884
 923  1687.236
 924  1667.475
 925  1769.26
 926  1755.355
 927  1715.256
 928  1596.873
 929  1477.36
 930  1716.487
 931  1856.851
 932  1905.228
 933  1584.341
 934  1269.951
 935  1391.559
 936  1482.563
 937  1556.232
 938  1542.504
 939  1509.264
 940  1511.781
 941  1399.266
 942  1458.081
 943  1693.901
 944  1721.658
 945  1897.268
 946  1910.822
 947  2061.208
 948  1981.23
 949  1773.713
 950  1858.495
 951  1648.539
 952  1626.186
 953  1698.25
 954  1635.35
 955  1672.635
 956  1379.133
 957  1526.138
 958  1564.429
 959  1500.727
 960  1658.648
 961  1766.404
 962  1974.835
 963  1941.469
 964  1659.525
 965  1543.132
 966  1233.089
 967  1303.566
 968  1392.536
 969  1556.328
 970  1743.14
 971  1659.227
 972  1780.191
 973  1862.47
 974  1733.263
 975  1700.289
 976  1402.078
 977  1578.487
 978  1573.793
 979  1748.636
 980  1757.124
 981  1576.364
 982  1633.084
 983  1571.165
 984  1432.723
 985  1538.508
 986  1508.283
 987  1581.483
 988  1298.852
 989  1275.909
 990  1411.654
 991  1263.775
 992  1401.358
 993  1367.724
 994  1552.849
 995  1746.328
 996  1806.085
 997  1871.034
 998  1604.557
 999  1587.485
1000  1641.008
1001  1536.802
1002  1544.731
1003  1368.245
1004  1472.512
1005  1499.404
1006  1336.756
1007  1248.922
1008  1160.729
1009  1246.943
1010  1458.987
1011  1806.031
1012  2047.396
1013  1770.231
1014  1631.474
1015  1624.768
1016  1567.56
1017  1408.062
1018  1310.89
1019  1341.797
1020  1364.939
1021  1205.93
1022  1271.125
1023  1115.879
