# Input file       =  1210595454.117564_cleaned.dat
# Candidate        =  PSR_0332+5434
# Telescope        =  AR
# Epoch_topo       =  58255.521679601436
# Epoch_bary       =  N/A
# T_sample         =  0.002
# Data Folded      =  7340032
# Data Avg         =  0.279093918173333
# Data StdDev      =  5.46745835108926 
# Profile Bins     =  1024
# Profile Avg      =  2000.54883481069 
# Profile StdDev   =  462.897123218734 
# Reduced chi-sqr  =  0.890
# Prob(Noise)      <  0.995   (~0.0 sigma)
# P_topo (ms)      =  714.531462543888  +/- 0.000199
# P'_topo (s/s)    =  -0                +/- 1.05e-10
# P''_topo (s/s^2) =  0                 +/- 4.64e-14
# P_bary (ms)      =  N/A
# P'_bary (s/s)    =  N/A
# P''_bary (s/s^2) =  N/A
# P_orb (s)        =  N/A
# asin(i)/c (s)    =  N/A
# eccentricity     =  N/A
# w (rad)          =  N/A
# T_peri           =  N/A
######################################################
   0  1838.815
   1  1725.307
   2  1644.291
   3  1901.72
   4  1998.635
   5  1898.343
   6  1734.074
   7  1861.957
   8  2141.959
   9  2136.57
  10  2090.588
  11  2021.886
  12  1964.928
  13  2028.117
  14  2198.637
  15  2188.401
  16  2165.765
  17  2101.845
  18  2290.284
  19  2268.063
  20  2066.284
  21  2079.91
  22  2183.566
  23  2192.998
  24  2057.066
  25  2067.022
  26  2120.003
  27  2145.039
  28  2111.088
  29  2125.1
  30  2130.126
  31  2158.851
  32  2185.215
  33  2056.255
  34  2037.927
  35  2022.835
  36  1953.273
  37  1896.457
  38  2009.058
  39  2072.747
  40  2050.155
  41  2072.969
  42  2284.054
  43  2458.625
  44  2484.901
  45  2535.02
  46  2463.239
  47  2420.483
  48  2378.014
  49  2517
  50  2642.598
  51  2418.564
  52  2453.164
  53  2349.115
  54  2226.964
  55  1980.79
  56  2012.639
  57  2131.592
  58  2219.8
  59  2339.67
  60  2448.437
  61  2396.286
  62  2386.518
  63  2509.932
  64  2415.753
  65  2337.56
  66  2299.505
  67  2427.795
  68  2411.793
  69  2197.473
  70  2234.195
  71  2284.523
  72  2307.631
  73  2344.553
  74  2382.101
  75  2286.077
  76  2113.156
  77  2211.611
  78  2376.781
  79  2403.09
  80  2392.249
  81  2357.146
  82  2134.594
  83  1884.319
  84  1978.318
  85  1930.298
  86  1790.345
  87  1689.775
  88  1811.678
  89  1900.02
  90  1959.423
  91  2079.69
  92  2033.846
  93  1952.358
  94  2046.296
  95  2243.632
  96  2221.863
  97  2214.468
  98  2225.636
  99  2169.604
 100  2088.7
 101  2170.055
 102  2191.731
 103  2284.679
 104  2268.824
 105  2200.749
 106  2076.103
 107  2043.782
 108  2264.192
 109  2451.162
 110  2473.481
 111  2418.211
 112  2406.103
 113  2438.799
 114  2536.237
 115  2642.355
 116  2514.299
 117  2346.384
 118  2251.37
 119  2211.19
 120  2061.311
 121  2075.356
 122  2264.844
 123  2445.52
 124  2323.125
 125  2297.042
 126  2330.208
 127  2379.536
 128  2388.117
 129  2482.172
 130  2453.556
 131  2314.704
 132  2207.472
 133  2264.733
 134  2211.874
 135  2167.709
 136  2144.156
 137  2068.797
 138  1930.795
 139  1865.667
 140  1892.08
 141  1866.248
 142  1913.632
 143  2135.318
 144  2303.024
 145  2358.753
 146  2401.134
 147  2487.84
 148  2290.757
 149  2132.724
 150  2060.429
 151  2078.406
 152  1965.576
 153  1985.793
 154  1958.609
 155  1785.573
 156  1708.313
 157  1799.933
 158  1854.709
 159  1701.02
 160  1793.806
 161  1792.02
 162  1697.005
 163  1577.324
 164  1811.615
 165  1979.638
 166  1908.108
 167  1773.319
 168  1746.664
 169  1846.679
 170  1802.765
 171  1735.503
 172  1639.785
 173  1759.22
 174  2031.263
 175  2175.779
 176  2093.567
 177  1919.541
 178  1732.923
 179  1645.93
 180  1615.891
 181  1713.385
 182  1727.907
 183  1770.644
 184  1756.071
 185  1822.846
 186  1831.537
 187  1840.266
 188  2041.345
 189  2173.573
 190  2147.088
 191  2230.723
 192  2219.453
 193  2358.293
 194  2420.234
 195  2353.558
 196  2244.956
 197  2038.022
 198  2063.47
 199  1985.555
 200  1978.566
 201  1898.973
 202  1865.493
 203  1901.443
 204  2030.913
 205  2179.048
 206  2152.451
 207  2070.739
 208  2103.55
 209  1983.102
 210  1907.288
 211  1803.169
 212  1856.471
 213  1963.981
 214  1953.459
 215  1835.227
 216  1758.888
 217  1708.672
 218  1867.932
 219  1898.065
 220  1845.721
 221  1851.344
 222  1882.056
 223  1907.324
 224  1882.549
 225  1850.144
 226  1950.151
 227  2038.948
 228  2090.317
 229  2126.218
 230  2115.347
 231  1992.278
 232  1891.208
 233  1680.168
 234  1572.237
 235  1640.741
 236  1608.215
 237  1565.64
 238  1475.855
 239  1742.945
 240  1933.087
 241  1970.361
 242  1897.359
 243  1861.535
 244  1802.724
 245  1694.743
 246  1721.421
 247  1636.606
 248  1585.066
 249  1607.797
 250  1818.164
 251  1970.57
 252  1823.567
 253  1698.684
 254  1742.984
 255  1693.519
 256  1832.688
 257  1883.278
 258  1895.265
 259  1711.815
 260  1825.548
 261  1894.087
 262  1979.783
 263  1917.291
 264  1836.6
 265  1691.602
 266  1639.283
 267  1795.765
 268  1974.64
 269  1863.798
 270  1893.457
 271  1862.804
 272  1973.597
 273  1980.075
 274  2067.905
 275  1989.847
 276  2050.426
 277  2023.132
 278  1999.232
 279  1926.916
 280  1996.825
 281  2117.218
 282  2136.365
 283  2036.989
 284  2016.096
 285  2000.249
 286  2040.789
 287  2037.833
 288  1991.634
 289  2003.141
 290  1864.598
 291  1913.961
 292  2041.247
 293  2007.478
 294  2066.751
 295  2042.01
 296  2149.005
 297  2017.616
 298  2063.201
 299  1981.622
 300  1917.618
 301  1830.307
 302  1724.139
 303  1787.888
 304  1778.392
 305  1906.508
 306  2048.847
 307  2034.41
 308  2059.131
 309  2135.568
 310  2267.298
 311  2273.916
 312  2345.133
 313  2285.292
 314  2140.017
 315  1925.915
 316  1922.645
 317  2039.066
 318  1928.96
 319  1723.054
 320  1625.56
 321  1637.828
 322  1692.525
 323  1671.763
 324  1753.445
 325  1842.869
 326  1716.286
 327  1646.501
 328  1763.891
 329  1970.617
 330  1854.8
 331  1806.231
 332  1824.74
 333  1900.404
 334  1745.182
 335  1595.955
 336  1672.713
 337  1824.298
 338  1911.638
 339  1970.581
 340  2061.97
 341  1970.588
 342  1925.338
 343  1870.871
 344  1935.397
 345  1933.296
 346  1859.804
 347  1919.3
 348  2036.658
 349  2071.735
 350  1970.492
 351  1951.365
 352  1867.077
 353  1920.266
 354  1957.313
 355  2061.477
 356  1988.144
 357  1987.235
 358  2002.493
 359  2074.005
 360  2121.735
 361  2161.818
 362  2179.123
 363  2162.323
 364  2256.717
 365  2239.447
 366  2257.121
 367  2146.694
 368  2063.149
 369  2080.301
 370  2174.913
 371  2162.481
 372  2121.368
 373  2271.07
 374  2461.485
 375  2514.997
 376  2432.402
 377  2381.807
 378  2345.272
 379  2364.228
 380  2235.835
 381  2183.99
 382  2169.113
 383  2141.849
 384  2168.6
 385  2121.48
 386  2227.083
 387  2268.157
 388  2346.562
 389  2398.973
 390  2387.292
 391  2295.791
 392  2263.66
 393  2141.688
 394  2022.885
 395  1868.981
 396  1735.833
 397  1699.589
 398  1844.061
 399  2038.926
 400  1932.126
 401  1930.597
 402  2067.353
 403  2049.713
 404  2117.784
 405  2040.17
 406  2265.034
 407  2235.057
 408  2027.424
 409  1975.631
 410  1987.201
 411  2054.833
 412  2036.797
 413  1972.771
 414  2046.049
 415  2019.49
 416  1989.633
 417  1881.24
 418  1747.181
 419  1801.541
 420  1871.159
 421  1792.182
 422  1672.305
 423  1571.263
 424  1733.721
 425  1809.593
 426  1943.19
 427  1832.616
 428  1876.199
 429  2002.649
 430  2154.64
 431  2083.217
 432  1959.459
 433  1951.939
 434  1938.768
 435  1984.084
 436  1941.221
 437  2098.001
 438  2006.547
 439  2025.397
 440  1904.597
 441  1881.917
 442  1719.29
 443  1737.395
 444  1821.611
 445  1941.612
 446  2170.688
 447  2260.676
 448  2322.276
 449  2208.475
 450  2260.453
 451  2150.572
 452  2166.144
 453  1950.219
 454  2004.007
 455  1948.651
 456  2028.986
 457  2057.885
 458  2145.262
 459  2162.583
 460  1965.511
 461  1992.466
 462  1952.426
 463  1907.155
 464  1960.867
 465  2036.628
 466  2095.786
 467  1937.638
 468  1930.243
 469  2107.333
 470  2064.137
 471  2105.112
 472  2164.414
 473  2313.726
 474  2227.983
 475  2153.697
 476  2225.514
 477  2187.415
 478  2068.887
 479  2001.816
 480  2009.188
 481  1943.882
 482  1832.802
 483  1902.304
 484  1943.426
 485  2088.051
 486  2071.605
 487  2011.187
 488  2091.165
 489  2100.872
 490  2184.42
 491  2166.657
 492  2195.171
 493  2104.244
 494  1903.936
 495  1769.227
 496  1656.605
 497  1715.764
 498  1708.149
 499  1894.356
 500  2022.584
 501  1950.558
 502  1963.295
 503  1867.65
 504  1829.562
 505  1761.275
 506  1579.766
 507  1446.306
 508  1264.378
 509  1438.924
 510  1571.089
 511  1693.849
 512  1742.76
 513  1734.171
 514  1874.007
 515  1796.654
 516  1843.358
 517  1809.201
 518  1851.259
 519  1780.839
 520  1696.078
 521  1736.802
 522  1693.619
 523  1703.432
 524  1753.466
 525  1855.672
 526  1865.012
 527  1859.362
 528  1821.066
 529  1820.69
 530  2021.83
 531  2091.16
 532  2058.856
 533  2000.664
 534  2044.953
 535  2054.91
 536  1896.195
 537  1897.405
 538  1943.64
 539  1950.428
 540  1907.315
 541  2013.943
 542  2042.197
 543  1996.94
 544  1895.796
 545  2037.59
 546  2116.356
 547  2162.425
 548  2001.523
 549  1875.267
 550  1638.132
 551  1718.164
 552  1904.855
 553  2008.909
 554  2002.547
 555  1928.425
 556  1999.307
 557  2077.763
 558  2075.301
 559  2357.431
 560  2445.768
 561  2527.029
 562  2358.507
 563  2072.028
 564  1849.849
 565  1840.378
 566  1948.568
 567  1962.343
 568  2021.879
 569  1917.617
 570  1814.127
 571  1720.604
 572  1761.898
 573  1829.378
 574  1716.73
 575  1747.853
 576  1834.816
 577  2015.773
 578  1990.875
 579  1769.258
 580  1659.005
 581  1613.49
 582  1661.955
 583  1582.582
 584  1577.386
 585  1438.24
 586  1507.333
 587  1588.047
 588  1613.529
 589  1627.27
 590  1726.613
 591  1825.865
 592  1919.278
 593  2060.574
 594  2279.765
 595  2475.121
 596  2709.599
 597  2961.782
 598  3153.664
 599  3165.246
 600  3045.202
 601  2939.616
 602  2774.38
 603  2607.554
 604  2422.806
 605  2245.174
 606  2090.235
 607  2023.592
 608  2093.247
 609  2131.222
 610  2212.889
 611  2273.467
 612  2340.833
 613  2221.969
 614  2205.237
 615  2132.492
 616  1965.765
 617  1905.314
 618  1805.406
 619  1690.312
 620  1615.925
 621  1655.474
 622  1860.62
 623  2091.01
 624  2208.632
 625  2412.859
 626  2354.68
 627  2439.793
 628  2472.267
 629  2492.61
 630  2337.195
 631  2172.405
 632  1991.496
 633  1780.953
 634  1771.416
 635  1888.675
 636  2090.252
 637  2020.766
 638  2030.474
 639  2094.633
 640  2114.991
 641  2064.92
 642  1980.806
 643  2109.289
 644  2065.276
 645  1916.088
 646  1793.49
 647  1689.483
 648  1695.199
 649  1738.87
 650  1707.301
 651  1520.42
 652  1616.693
 653  1794.278
 654  1815.789
 655  1798.302
 656  1833.099
 657  2025.416
 658  2037.661
 659  2000.525
 660  1891.878
 661  1764.186
 662  1680.707
 663  1569.869
 664  1591.824
 665  1567.89
 666  1674.819
 667  1816.554
 668  1938.676
 669  1908.667
 670  1859.904
 671  1997.782
 672  1975.453
 673  2040.351
 674  2051.084
 675  1965.279
 676  1923.272
 677  1990.047
 678  2042.013
 679  1953.492
 680  1731.876
 681  1573.575
 682  1411.015
 683  1516.063
 684  1633.429
 685  1863.979
 686  1914.338
 687  1911.58
 688  1894.044
 689  1871.384
 690  1933.13
 691  2082.467
 692  1927.322
 693  1766.404
 694  1699.43
 695  1800.567
 696  1890.866
 697  1909.259
 698  1907.183
 699  1830.435
 700  1892.023
 701  2051.573
 702  2194.894
 703  2287.697
 704  2044.322
 705  1843.385
 706  1745.565
 707  1767.044
 708  1972.017
 709  2065.573
 710  2199.864
 711  2210.791
 712  2156.574
 713  2054.926
 714  1979.735
 715  2084.71
 716  2122.124
 717  2043.851
 718  2016.688
 719  2103.141
 720  2204.83
 721  2310.186
 722  2241.643
 723  2150.056
 724  2135.992
 725  2192.74
 726  2093.261
 727  1975.22
 728  1873.357
 729  1768.242
 730  1698.107
 731  1690.149
 732  1829.199
 733  1833.276
 734  1918.831
 735  1855.283
 736  1800.055
 737  1842.232
 738  1953.653
 739  2083.777
 740  2051.6
 741  1944.492
 742  1806.539
 743  1534.635
 744  1558
 745  1499.479
 746  1551.655
 747  1506.018
 748  1629.095
 749  1637.099
 750  1629.594
 751  1698.467
 752  1870.018
 753  2029.883
 754  1997.125
 755  1870.896
 756  1930.774
 757  1939.823
 758  1816.143
 759  1707.025
 760  1738.018
 761  1843.626
 762  1763.85
 763  1705.639
 764  1766.23
 765  1838.3
 766  1873.996
 767  1759.442
 768  1751.027
 769  1766.981
 770  1855.015
 771  1894.753
 772  1822.659
 773  1781.146
 774  1867.992
 775  2007.397
 776  1886.439
 777  1874.489
 778  1868.366
 779  1921.866
 780  1966.56
 781  1984.259
 782  2028.422
 783  1952.107
 784  2111.867
 785  2238.608
 786  2283.062
 787  2269.654
 788  2194.699
 789  2200.798
 790  2215.754
 791  2105.735
 792  1940.774
 793  1959.561
 794  2017.013
 795  2122.127
 796  2114.108
 797  2182.89
 798  2372.748
 799  2402.552
 800  2431.374
 801  2217.168
 802  2186.668
 803  2203.559
 804  2195.064
 805  2204.891
 806  2145.663
 807  2299.542
 808  2242.054
 809  2183.005
 810  2169.826
 811  2180.678
 812  2335.926
 813  2449.959
 814  2392.142
 815  2188.015
 816  1897.426
 817  1748.932
 818  1821.656
 819  1954.473
 820  1880.752
 821  1849.912
 822  1972.283
 823  1954.419
 824  1928.132
 825  1828.283
 826  1857.172
 827  1897.812
 828  1828.892
 829  1792.424
 830  1637.392
 831  1763.063
 832  1660.735
 833  1547.151
 834  1519.197
 835  1478.196
 836  1584.549
 837  1665.578
 838  1796.79
 839  1735.774
 840  1792.26
 841  1772.057
 842  1742.906
 843  1694.114
 844  1730.831
 845  1743.774
 846  1690.308
 847  1646.963
 848  1665.047
 849  1643.164
 850  1644.514
 851  1875.282
 852  1975.483
 853  1780.987
 854  1668.535
 855  1714.535
 856  1867.994
 857  1910.277
 858  1818.22
 859  1770.311
 860  1635.953
 861  1854.977
 862  1828.937
 863  1806.803
 864  1718.995
 865  1786.567
 866  1878.709
 867  1888.267
 868  2000.829
 869  1997.009
 870  2067.874
 871  2125.198
 872  2140.439
 873  2143.24
 874  1988.107
 875  2155.527
 876  2246.405
 877  2239.926
 878  2153.136
 879  2047.01
 880  1983.782
 881  2132.365
 882  2447.167
 883  2527.413
 884  2458.996
 885  2272.432
 886  1960.207
 887  1888.628
 888  1985.561
 889  2213.488
 890  2201.174
 891  2193.783
 892  2273.069
 893  2282.788
 894  2143.981
 895  2169.145
 896  2088.902
 897  2121.001
 898  2142.613
 899  2229.484
 900  2305.517
 901  2222.144
 902  2395.64
 903  2475.241
 904  2362.046
 905  2302.69
 906  2165.568
 907  2170.23
 908  1989.038
 909  2055.829
 910  1904.442
 911  1897.766
 912  1864.297
 913  1821.675
 914  1756.195
 915  1569.031
 916  1652.232
 917  1898.055
 918  1945.825
 919  1914.847
 920  1837.589
 921  1990.762
 922  2123.126
 923  2280.419
 924  2137.779
 925  1993.516
 926  2075.913
 927  2237.064
 928  2100.151
 929  1861.46
 930  1783.179
 931  1866.17
 932  1857.772
 933  1914.368
 934  1920.705
 935  1836.566
 936  1910.021
 937  2014.09
 938  2055.827
 939  2020.557
 940  2047.499
 941  2193.104
 942  2018.027
 943  1785.977
 944  1884.071
 945  2006.927
 946  2006.891
 947  1881
 948  1785.693
 949  1799.58
 950  1739.784
 951  1842.383
 952  1922.992
 953  1983.256
 954  2024.167
 955  2172.251
 956  2243.204
 957  2146.39
 958  2033.849
 959  2003.999
 960  1986.938
 961  1972.376
 962  1829.001
 963  1672.736
 964  1737.192
 965  1911.12
 966  2113.75
 967  2170.075
 968  2214.204
 969  2182.153
 970  2059.737
 971  2073.285
 972  2209.039
 973  2345.792
 974  2354.491
 975  2344.654
 976  2282.177
 977  2328.168
 978  2241.525
 979  2359.861
 980  2434.43
 981  2413.902
 982  2353.9
 983  2339.297
 984  2432.554
 985  2408.677
 986  2310.356
 987  2296.659
 988  2210.605
 989  2356.406
 990  2446.105
 991  2518.576
 992  2443.486
 993  2191.214
 994  1910.211
 995  1832.271
 996  1930.105
 997  1909.935
 998  1846.351
 999  1869.576
1000  2057.162
1001  2124.347
1002  1999.504
1003  1893.832
1004  1824.476
1005  1631.649
1006  1646.365
1007  1669.675
1008  1787.403
1009  1744.656
1010  1750.997
1011  1644.322
1012  1554.838
1013  1634.051
1014  1901.542
1015  2016.588
1016  1964.208
1017  1882.077
1018  1897.984
1019  1814.164
1020  1765.496
1021  1835.823
1022  1913.958
1023  1922.975
