# Input file       =  1210509309.128302_cleaned.dat
# Candidate        =  PSR_0332+5434
# Telescope        =  AR
# Epoch_topo       =  58254.524631114611
# Epoch_bary       =  N/A
# T_sample         =  0.002
# Data Folded      =  7340032
# Data Avg         =  0.166340192736243
# Data StdDev      =  4.11157834570846 
# Profile Bins     =  1024
# Profile Avg      =  1192.46688875183 
# Profile StdDev   =  348.102841558494 
# Reduced chi-sqr  =  0.906
# Prob(Noise)      <  0.986   (~0.0 sigma)
# P_topo (ms)      =  714.532439516701  +/- 0.000544
# P'_topo (s/s)    =  -0                +/- 2.87e-10
# P''_topo (s/s^2) =  0                 +/- 1.27e-13
# P_bary (ms)      =  N/A
# P'_bary (s/s)    =  N/A
# P''_bary (s/s^2) =  N/A
# P_orb (s)        =  N/A
# asin(i)/c (s)    =  N/A
# eccentricity     =  N/A
# w (rad)          =  N/A
# T_peri           =  N/A
######################################################
   0  1377.555
   1  1419.741
   2  1325.857
   3  1220.086
   4  1179.662
   5  1129.081
   6  1166.692
   7  1277.807
   8  1323.814
   9  1323.469
  10  1252.93
  11  1274.325
  12  1272.63
  13  1215.172
  14  1234.945
  15  1324.557
  16  1300.474
  17  1234.073
  18  1093.483
  19  1094.812
  20  1008.559
  21  973.4588
  22  924.994
  23  1081.59
  24  1103.112
  25  1139.811
  26  1136.609
  27  1138.035
  28  1231.885
  29  1245.32
  30  1348.391
  31  1265.931
  32  1280.509
  33  1231.249
  34  1153.31
  35  1154.077
  36  1122.382
  37  1131.977
  38  1102.612
  39  1193.424
  40  1279.712
  41  1260.037
  42  1173.192
  43  1211.467
  44  1250.919
  45  1329.244
  46  1281.683
  47  1339.096
  48  1365.015
  49  1367.249
  50  1363.845
  51  1395.75
  52  1314.834
  53  1275.674
  54  1179.83
  55  1158.922
  56  1067.443
  57  1088.772
  58  1122.955
  59  1096.312
  60  1149.621
  61  1166.694
  62  1258.661
  63  1205.207
  64  1301.643
  65  1367.563
  66  1477.353
  67  1384.256
  68  1341.273
  69  1235.892
  70  1161.373
  71  1194.843
  72  1275.355
  73  1367.132
  74  1305.648
  75  1369.9
  76  1470.342
  77  1562.549
  78  1480.886
  79  1501.856
  80  1461.654
  81  1456.14
  82  1251.682
  83  1232.262
  84  1208.328
  85  1332.169
  86  1377.871
  87  1324.504
  88  1296.373
  89  1399.955
  90  1586.894
  91  1622.376
  92  1537.719
  93  1419.158
  94  1385.604
  95  1464.371
  96  1467.366
  97  1530.52
  98  1476.925
  99  1481.225
 100  1530.137
 101  1535.612
 102  1436.53
 103  1298.375
 104  1234.324
 105  1385.233
 106  1425.543
 107  1399.579
 108  1368.369
 109  1492.067
 110  1438.337
 111  1264.215
 112  1192.897
 113  1253.231
 114  1260.448
 115  1193.993
 116  1271.314
 117  1414.964
 118  1422.109
 119  1476.647
 120  1475.969
 121  1466.784
 122  1300.851
 123  1299.755
 124  1331.345
 125  1430.064
 126  1482.424
 127  1518.388
 128  1474.816
 129  1380.609
 130  1308.068
 131  1343.657
 132  1413.588
 133  1533.902
 134  1586.155
 135  1588.933
 136  1456.157
 137  1381.221
 138  1337.729
 139  1374.144
 140  1380.15
 141  1406.982
 142  1494.158
 143  1492.038
 144  1472.525
 145  1437.43
 146  1482.916
 147  1517.757
 148  1472.684
 149  1393.859
 150  1337.611
 151  1407.937
 152  1484.079
 153  1468.51
 154  1413.502
 155  1389.094
 156  1499.392
 157  1533.868
 158  1513.943
 159  1377.313
 160  1286.256
 161  1127.75
 162  1176.948
 163  1189.69
 164  1270.851
 165  1277.227
 166  1319.733
 167  1348.805
 168  1238.886
 169  1211.996
 170  1173.901
 171  1260.408
 172  1385.56
 173  1375.282
 174  1410.64
 175  1396.276
 176  1492.906
 177  1533.467
 178  1404.253
 179  1320.89
 180  1249.59
 181  1156.469
 182  1118.055
 183  1129.579
 184  1203.282
 185  1145.387
 186  1105.916
 187  1169.179
 188  1202.7
 189  1227.296
 190  1243.358
 191  1173.312
 192  1064.479
 193  1092.169
 194  1252.421
 195  1280.033
 196  1234.997
 197  1259.351
 198  1277.704
 199  1306.587
 200  1164.462
 201  1138.327
 202  1111.173
 203  1060.25
 204  1190.483
 205  1125.89
 206  1114.491
 207  1059.49
 208  1060.281
 209  1100.766
 210  1071.202
 211  1053.318
 212  1013.218
 213  966.2142
 214  1057.385
 215  1073.608
 216  1137.888
 217  1134.144
 218  976.6845
 219  946.098
 220  983.9738
 221  1008.991
 222  957.4382
 223  811.4973
 224  966.5794
 225  1108.073
 226  1166.954
 227  1078.641
 228  1078.185
 229  1202.963
 230  1198.911
 231  1115.357
 232  951.2604
 233  983.8666
 234  1137.19
 235  1246.268
 236  1282.123
 237  1181.453
 238  1221.867
 239  1241.084
 240  1272.861
 241  1230.42
 242  1321.447
 243  1377.01
 244  1452.721
 245  1323.067
 246  1258.191
 247  1249.725
 248  1216.836
 249  1292.082
 250  1300.762
 251  1312.023
 252  1353.409
 253  1362.407
 254  1406.664
 255  1211.672
 256  1313.84
 257  1349.616
 258  1446.544
 259  1376.659
 260  1437.463
 261  1437.905
 262  1413.311
 263  1288.014
 264  1189.068
 265  1162.402
 266  1227.204
 267  1279.724
 268  1232.294
 269  1140.223
 270  1140.617
 271  1254.699
 272  1369.102
 273  1381.919
 274  1268.228
 275  1193.816
 276  1188.55
 277  1149.342
 278  1059.218
 279  1016.229
 280  1047.863
 281  1046.923
 282  1065.291
 283  1071.799
 284  973.5092
 285  975.3885
 286  1018.024
 287  1200.505
 288  1234.759
 289  1285.216
 290  1254.731
 291  1141.204
 292  942.3276
 293  870.4247
 294  913.2592
 295  895.4878
 296  823.7703
 297  969.2554
 298  1046.452
 299  1109.397
 300  1031.222
 301  1068.552
 302  1159.33
 303  1066.408
 304  901.4147
 305  847.2403
 306  959.827
 307  1096.637
 308  1019.392
 309  1112.568
 310  1272.128
 311  1295.815
 312  1166.19
 313  932.5541
 314  878.6722
 315  905.2036
 316  875.0933
 317  892.1006
 318  870.2539
 319  1015.252
 320  1060.294
 321  1218.644
 322  1148.275
 323  988.9708
 324  869.4552
 325  871.7814
 326  946.3319
 327  1068.959
 328  1090.164
 329  1070.42
 330  1015.908
 331  1028.042
 332  1001.566
 333  940.4731
 334  978.1805
 335  1035.999
 336  1027.751
 337  1076.991
 338  1049.278
 339  1116.004
 340  1017.668
 341  942.3246
 342  949.6937
 343  965.5416
 344  1154.39
 345  1125.215
 346  1111.959
 347  1077.986
 348  1085.148
 349  1148.538
 350  1124.745
 351  1074.104
 352  986.1561
 353  919.7883
 354  895.0668
 355  886.1661
 356  797.8026
 357  839.4966
 358  808.3787
 359  870.0293
 360  726.2971
 361  762.8338
 362  879.7199
 363  1073.74
 364  1023.946
 365  915.0607
 366  829.303
 367  925.1656
 368  1010.977
 369  1049.009
 370  1035.17
 371  956.7232
 372  873.1743
 373  861.1878
 374  842.2438
 375  855.34
 376  886.5328
 377  992.1967
 378  1081.819
 379  1181.874
 380  1206.063
 381  1213.125
 382  1154.495
 383  1126.685
 384  991.7776
 385  1049.997
 386  1096.329
 387  1251.994
 388  1329.388
 389  1314.495
 390  1227.868
 391  1224.552
 392  1326.432
 393  1296.538
 394  1150.694
 395  1024.275
 396  1034.951
 397  1106.396
 398  1126.296
 399  1146.29
 400  1151.652
 401  1272.462
 402  1344.067
 403  1331.656
 404  1367.006
 405  1368.682
 406  1479.295
 407  1382.464
 408  1310.127
 409  1287.672
 410  1231.928
 411  1202.042
 412  1178.09
 413  1165.468
 414  1245.822
 415  1348.648
 416  1275.987
 417  1198.516
 418  1142.277
 419  1233.088
 420  1280.055
 421  1320.085
 422  1315.397
 423  1359.467
 424  1395.189
 425  1366.082
 426  1294.316
 427  1293.202
 428  1201.433
 429  1179.435
 430  986.6693
 431  957.3072
 432  901.4271
 433  1102.156
 434  1265.234
 435  1353.522
 436  1283.225
 437  1261.714
 438  1297.927
 439  1459.271
 440  1466.212
 441  1279.544
 442  1087.175
 443  1029.633
 444  1031.274
 445  1096.755
 446  1061.541
 447  1120.273
 448  1127.434
 449  1243.655
 450  1292.444
 451  1305.524
 452  1286.065
 453  1280.637
 454  1338.364
 455  1267.492
 456  1161.213
 457  1052.706
 458  1104.615
 459  1168.11
 460  1214.147
 461  1222.225
 462  1205.869
 463  1232.977
 464  1179.663
 465  1144.613
 466  1166.584
 467  1135.913
 468  951.4119
 469  963.3896
 470  1025.01
 471  1214.35
 472  1109.928
 473  1147.099
 474  1255.899
 475  1325.493
 476  1290.461
 477  1199.382
 478  1132.23
 479  1066.024
 480  1077.642
 481  1092.713
 482  1126.85
 483  1240.908
 484  1370.013
 485  1335.983
 486  1265.186
 487  1225.188
 488  1199.594
 489  1194.415
 490  1170.476
 491  1231.653
 492  1164.838
 493  1067.36
 494  1089.801
 495  1160.319
 496  1187.829
 497  1090.589
 498  1066.432
 499  1103.269
 500  1064.115
 501  1098.002
 502  1117.278
 503  1226.82
 504  1231.193
 505  1240.06
 506  1100.243
 507  1044.209
 508  1014.553
 509  1155.439
 510  1263.39
 511  1343.306
 512  1319.983
 513  1353.422
 514  1439.115
 515  1444.484
 516  1410.475
 517  1289.532
 518  1251.343
 519  1214.44
 520  1229.237
 521  1187.139
 522  1170.019
 523  1157.295
 524  1204.787
 525  1259.313
 526  1340.635
 527  1450.022
 528  1377.362
 529  1303.877
 530  1111.085
 531  1119.667
 532  1108.732
 533  1221.876
 534  1331.352
 535  1307.284
 536  1277.368
 537  1182.765
 538  1202.272
 539  1171.824
 540  1221.844
 541  1243.458
 542  1190.569
 543  1007.142
 544  1013.374
 545  984.0698
 546  1021.599
 547  982.515
 548  1074.465
 549  1185.95
 550  1176.894
 551  1237.085
 552  1148.793
 553  1243.507
 554  1290.96
 555  1301.251
 556  1243.213
 557  1239.583
 558  1364.975
 559  1420.976
 560  1299.729
 561  1157.587
 562  1102.162
 563  1205.457
 564  1260.647
 565  1230.921
 566  1324.699
 567  1370.724
 568  1325.851
 569  1195.166
 570  1101.411
 571  1130.542
 572  1054.926
 573  1049.078
 574  1010.278
 575  1005.624
 576  1045.823
 577  1178.782
 578  1170.152
 579  1193.349
 580  1131.434
 581  1173.851
 582  1213.474
 583  1217.313
 584  1315.565
 585  1375.86
 586  1389.184
 587  1272.141
 588  1218.815
 589  1353.891
 590  1440.477
 591  1456.926
 592  1577.883
 593  1724.765
 594  1870.13
 595  1929.235
 596  1954.772
 597  2055.4
 598  2117.909
 599  2307.792
 600  2328.116
 601  2283.333
 602  2135.989
 603  2003.495
 604  1856.859
 605  1649.931
 606  1514.49
 607  1359.142
 608  1200.752
 609  1173.025
 610  1136.671
 611  1197.193
 612  1162.987
 613  1201.451
 614  1162.202
 615  1236.27
 616  1352.236
 617  1569.369
 618  1538.898
 619  1338.908
 620  1188.697
 621  1169.45
 622  1190.956
 623  1173.828
 624  1184.785
 625  1217.639
 626  1095.494
 627  1107.82
 628  1161.081
 629  1195.77
 630  1121.958
 631  1041.065
 632  1150.53
 633  1241.559
 634  1090.292
 635  987.5517
 636  998.3661
 637  1078.831
 638  1084.593
 639  1068.112
 640  1041.497
 641  875.5392
 642  848.2874
 643  837.8923
 644  982.524
 645  985.5882
 646  1021.726
 647  1077.586
 648  1080.451
 649  1090.73
 650  1068.908
 651  1211.369
 652  1277.114
 653  1152.719
 654  1000.683
 655  976.4322
 656  1105.727
 657  1197.289
 658  1209.976
 659  1265.212
 660  1230.361
 661  1152.375
 662  1117.407
 663  1125.948
 664  1122.83
 665  1101.115
 666  1073.998
 667  1092.106
 668  1060.739
 669  1000.748
 670  1052.051
 671  1079.236
 672  1128.629
 673  1063.274
 674  1061.097
 675  1097.152
 676  1151.494
 677  1282.186
 678  1281.677
 679  1311.177
 680  1278.402
 681  1270.928
 682  1276.614
 683  1346.327
 684  1359.464
 685  1315.257
 686  1145.943
 687  1070.843
 688  1101.579
 689  1188.969
 690  1223.426
 691  1172.875
 692  1140.428
 693  1077.564
 694  1146.657
 695  1164.143
 696  1125.335
 697  1119.859
 698  1189.496
 699  1196.695
 700  1164.071
 701  1026.506
 702  1051.88
 703  986.4069
 704  970.8575
 705  908.4578
 706  997.6018
 707  1252.539
 708  1300.394
 709  1240.245
 710  1177.838
 711  1092.978
 712  1069.173
 713  1104.813
 714  1209.503
 715  1253.547
 716  1267.02
 717  1230.952
 718  1225.691
 719  1230.07
 720  1345.945
 721  1391.197
 722  1255.86
 723  1147.284
 724  1102.338
 725  1148.316
 726  1124.301
 727  1186.034
 728  1248.814
 729  1219.022
 730  1128.867
 731  1086.007
 732  1213.271
 733  1181.577
 734  1187.886
 735  1151.787
 736  1160.53
 737  1190.752
 738  1309.366
 739  1414.229
 740  1347.41
 741  1153.768
 742  1023.711
 743  1043.496
 744  1123.223
 745  1250.453
 746  1322.092
 747  1175.921
 748  1010.099
 749  985.8837
 750  1172.649
 751  1242.563
 752  1227.221
 753  1261.774
 754  1353.75
 755  1373.727
 756  1333.684
 757  1274.203
 758  1291.684
 759  1193.07
 760  1026.996
 761  929.0566
 762  1038.983
 763  1239.625
 764  1196.834
 765  1048.354
 766  941.5806
 767  1011.035
 768  1173.576
 769  1190.614
 770  1266.914
 771  1172.234
 772  1268.472
 773  1255.904
 774  1345.851
 775  1332.006
 776  1320.653
 777  1178.167
 778  1076.908
 779  1032.82
 780  984.9527
 781  949.7118
 782  1011.281
 783  1269.247
 784  1368.875
 785  1350.149
 786  1269.171
 787  1201.378
 788  1204.161
 789  1213.235
 790  1259.37
 791  1229.098
 792  1208.533
 793  1205.847
 794  1196.7
 795  1173.948
 796  1181.828
 797  1252.601
 798  1338.539
 799  1361.521
 800  1306.726
 801  1307.568
 802  1182.842
 803  1212.688
 804  1211.093
 805  1258.156
 806  1230.302
 807  1142.771
 808  1002.236
 809  948.437
 810  1185.993
 811  1298.333
 812  1379.275
 813  1279.649
 814  1323.332
 815  1303.101
 816  1240.729
 817  1208.659
 818  1171.54
 819  1177.402
 820  1109.993
 821  1222.219
 822  1242.116
 823  1266.401
 824  1171.693
 825  1194.524
 826  1197.181
 827  1274.043
 828  1237.16
 829  1092.332
 830  1066.863
 831  1099.934
 832  1117.71
 833  1048.122
 834  1053.11
 835  1009.461
 836  989.5226
 837  959.9388
 838  1021.669
 839  1042.978
 840  1179.115
 841  1256.153
 842  1313.578
 843  1216.819
 844  1117.19
 845  1090.952
 846  1101.81
 847  1114.791
 848  1195.35
 849  1277.826
 850  1254.969
 851  1221.745
 852  1241.728
 853  1234.94
 854  1115.877
 855  1050.363
 856  1063.87
 857  1012.055
 858  994.0859
 859  1048.504
 860  1125.466
 861  1142.563
 862  1096.1
 863  1058.824
 864  1053.87
 865  1098.935
 866  1064.697
 867  853.8563
 868  736.4532
 869  835.4706
 870  953.7114
 871  949.6749
 872  871.111
 873  830.6213
 874  761.4753
 875  830.8746
 876  895.6617
 877  1017.185
 878  1010.295
 879  931.1855
 880  1012.122
 881  1022.145
 882  1120.187
 883  1038.092
 884  1043.681
 885  1031.836
 886  1127.801
 887  1064.764
 888  1025.042
 889  1003.399
 890  948.2643
 891  929.3505
 892  878.0789
 893  920.2374
 894  975.3494
 895  978.7028
 896  1040.911
 897  1069.907
 898  1153.85
 899  1161.021
 900  1144.267
 901  1097.493
 902  1060.568
 903  867.2394
 904  811.1249
 905  815.2565
 906  806.8039
 907  729.9185
 908  639.4599
 909  793.8516
 910  883.4908
 911  1026.261
 912  957.6771
 913  979.56
 914  898.7946
 915  972.4069
 916  1016.2
 917  1061.874
 918  1080.268
 919  1169.834
 920  1180.09
 921  1080.711
 922  944.3864
 923  1008.231
 924  980.4266
 925  987.3176
 926  1012.041
 927  1094.003
 928  1094.826
 929  1046.359
 930  1014.311
 931  1106.645
 932  1158.643
 933  1126.798
 934  1068.284
 935  1122.449
 936  1216.422
 937  1382.255
 938  1479.089
 939  1493.609
 940  1444.611
 941  1384.1
 942  1295.557
 943  1247.067
 944  1244.401
 945  1194.361
 946  1265.075
 947  1232.537
 948  1198.745
 949  1147.568
 950  1181.02
 951  1241.538
 952  1292.33
 953  1337.597
 954  1314.847
 955  1273.17
 956  1175.062
 957  1138.088
 958  1154.195
 959  1403.91
 960  1358.983
 961  1325.162
 962  1236.647
 963  1264.249
 964  1248.982
 965  1235.24
 966  1190.444
 967  1196.399
 968  1159.399
 969  1141.911
 970  1207.752
 971  1335.595
 972  1336.851
 973  1293.63
 974  1223.424
 975  1068.157
 976  987.6218
 977  1046.104
 978  1177.015
 979  1206.407
 980  1251.122
 981  1228.004
 982  1166.797
 983  1043.725
 984  1002.882
 985  1056.734
 986  1062.37
 987  1063.328
 988  997.2324
 989  1054.407
 990  1019.822
 991  1058.689
 992  1181.225
 993  1282.84
 994  1352.922
 995  1253.451
 996  1207.093
 997  1261.184
 998  1353.305
 999  1291.082
1000  1178.17
1001  1077.131
1002  1117.536
1003  1260.133
1004  1274.644
1005  1202.025
1006  1226.006
1007  1317.716
1008  1262.192
1009  1158.8
1010  1041.152
1011  1049.965
1012  1006.643
1013  1091.808
1014  1166.08
1015  1315.114
1016  1359.872
1017  1300.717
1018  1235.163
1019  1388.807
1020  1333.227
1021  1260.171
1022  1064.191
1023  1226.494
