# Input file       =  1210738238.106472_cleaned.dat
# Candidate        =  PSR_0332+5434
# Telescope        =  AR
# Epoch_topo       =  58257.174272065648
# Epoch_bary       =  N/A
# T_sample         =  0.002
# Data Folded      =  7143424
# Data Avg         =  0.157800069805063
# Data StdDev      =  5.11171682940181 
# Profile Bins     =  256
# Profile Avg      =  4403.47309709452 
# Profile StdDev   =  853.88624777138  
# Reduced chi-sqr  =  2.423
# Prob(Noise)      <  4.05e-32   (~11.7 sigma)
# P_topo (ms)      =  714.529491419004  +/- 2.12e-05
# P'_topo (s/s)    =  -0                +/- 1.15e-11
# P''_topo (s/s^2) =  0                 +/- 5.22e-15
# P_bary (ms)      =  N/A
# P'_bary (s/s)    =  N/A
# P''_bary (s/s^2) =  N/A
# P_orb (s)        =  N/A
# asin(i)/c (s)    =  N/A
# eccentricity     =  N/A
# w (rad)          =  N/A
# T_peri           =  N/A
######################################################
   0  2383.009
   1  4273.895
   2  5224.875
   3  4190.435
   4  3142.884
   5  5055.612
   6  4795.799
   7  3650.266
   8  3330.26
   9  5711.521
  10  5768.653
  11  4611.826
  12  3075.255
  13  3826.424
  14  5365.162
  15  5150.823
  16  2453.324
  17  3299.887
  18  7106.339
  19  5986.39
  20  3861.105
  21  3213.032
  22  4774.703
  23  5721.062
  24  4135.931
  25  2774.266
  26  5073.345
  27  6599.308
  28  4836.694
  29  3201.722
  30  4259.664
  31  5752.275
  32  4605.173
  33  3170.338
  34  4378.521
  35  5632.859
  36  5694.14
  37  4653.195
  38  4108.323
  39  4726.089
  40  4285.233
  41  3310.852
  42  4571.742
  43  5180.257
  44  4434.004
  45  3053.685
  46  3271.743
  47  4049.074
  48  4532.732
  49  3411.505
  50  3886.899
  51  5472.795
  52  5302.243
  53  2989.893
  54  2790.645
  55  5106.895
  56  5200.683
  57  3167.005
  58  2919.84
  59  5182.581
  60  6776.122
  61  4527.278
  62  2357.135
  63  3608.62
  64  5617.39
  65  4316.146
  66  2501.46
  67  4118.688
  68  5938.408
  69  5313.198
  70  3799.498
  71  3684.731
  72  4687.724
  73  5641.273
  74  4189.388
  75  3856.32
  76  4783.067
  77  5921.496
  78  4321.059
  79  3043.248
  80  4582.162
  81  5001.752
  82  3895.441
  83  4477.945
  84  5562.217
  85  5752.868
  86  4535.241
  87  3572.855
  88  4540.905
  89  5112.858
  90  3533.763
  91  3897.841
  92  5806.762
  93  5943.865
  94  3861.091
  95  3559.806
  96  4589.594
  97  4838.948
  98  4021.727
  99  2982.383
 100  4894.917
 101  6219.174
 102  4502.778
 103  3525.817
 104  3917.482
 105  4721.784
 106  4443.745
 107  2888.859
 108  3299.723
 109  5798.435
 110  4650.149
 111  2456.162
 112  2850.756
 113  4759.512
 114  4693.183
 115  3941.399
 116  2970.709
 117  4899.782
 118  6176.047
 119  4857.093
 120  3645.362
 121  4021.533
 122  4754.579
 123  4272.773
 124  3368.786
 125  4977.121
 126  5343.084
 127  4236.705
 128  3884.303
 129  4328.271
 130  4007.164
 131  3947.71
 132  2723.678
 133  4796.664
 134  5631.894
 135  4270.316
 136  3032.89
 137  4716.978
 138  5184.251
 139  4441.121
 140  2654.511
 141  4723.166
 142  6403.104
 143  5784.57
 144  3120.323
 145  3641.726
 146  5047.26
 147  5639.808
 148  4632.927
 149  6949.36
 150  9950.848
 151  8436.448
 152  5074.478
 153  3022.252
 154  4211.985
 155  6044.815
 156  5006.58
 157  3758.619
 158  4293.449
 159  6073.904
 160  5452.147
 161  4220.854
 162  4410.904
 163  4517.615
 164  4767.903
 165  4275.456
 166  4956.167
 167  6387.094
 168  5596.64
 169  3978.893
 170  4703.785
 171  5581.458
 172  4515.177
 173  2813.353
 174  4770.928
 175  6083.059
 176  5669.726
 177  3623.561
 178  4545.481
 179  6128.861
 180  4816.838
 181  3255.037
 182  3286.553
 183  5444.786
 184  6097.787
 185  3817.044
 186  2968.889
 187  4493.588
 188  5588.031
 189  3289.115
 190  2261.094
 191  4618.769
 192  6334.477
 193  4433.743
 194  3431.217
 195  2994.198
 196  5108.271
 197  4628.347
 198  1996.647
 199  2648.905
 200  5835.829
 201  5269.976
 202  3463.571
 203  3105.332
 204  4251.436
 205  4307.991
 206  3249.317
 207  3148.612
 208  4801.119
 209  4534.701
 210  3615.163
 211  3442.523
 212  4254.045
 213  4013.538
 214  3329.261
 215  3766.788
 216  5783.871
 217  5257.329
 218  3591.756
 219  3267.313
 220  4439.317
 221  5146.398
 222  3451.453
 223  3549.266
 224  4442.392
 225  6215.267
 226  4366.327
 227  3025.345
 228  3720.725
 229  5351.112
 230  3664.948
 231  1852.369
 232  3689.402
 233  6867.805
 234  5694.527
 235  1947.068
 236  2854.201
 237  4767.301
 238  5233.328
 239  2644.59
 240  2974.727
 241  5868.28
 242  5829.254
 243  4143.117
 244  2640.884
 245  4713.778
 246  5331.242
 247  3695.595
 248  2766.723
 249  4070.291
 250  5426.578
 251  4242.025
 252  3517.144
 253  3989.075
 254  3737.966
 255  3327.64
