# Input file       =  1210048853.110351_cleaned.dat
# Candidate        =  PSR_0332+5434
# Telescope        =  AR
# Epoch_topo       =  58249.195279054991
# Epoch_bary       =  N/A
# T_sample         =  0.002
# Data Folded      =  7208960
# Data Avg         =  0.0650359557938261
# Data StdDev      =  1.00009245347714 
# Profile Bins     =  512
# Profile Avg      =  915.642550581994 
# Profile StdDev   =  118.670146246928 
# Reduced chi-sqr  =  2.520
# Prob(Noise)      <  1.34e-68   (~17.5 sigma)
# P_topo (ms)      =  714.537254257566  +/- 9.12e-05
# P'_topo (s/s)    =  -0                +/- 4.9e-11
# P''_topo (s/s^2) =  0                 +/- 2.2e-14
# P_bary (ms)      =  N/A
# P'_bary (s/s)    =  N/A
# P''_bary (s/s^2) =  N/A
# P_orb (s)        =  N/A
# asin(i)/c (s)    =  N/A
# eccentricity     =  N/A
# w (rad)          =  N/A
# T_peri           =  N/A
######################################################
   0  1800.138
   1  1695.997
   2  1499.603
   3  1256.566
   4  954.5664
   5  854.2398
   6  856.6686
   7  897.647
   8  957.9901
   9  1106.739
  10  1061.106
  11  988.3317
  12  1052.051
  13  1049.338
  14  970.3237
  15  1061.718
  16  1096.479
  17  1036.674
  18  980.8889
  19  910.5038
  20  846.5507
  21  824.6986
  22  894.8252
  23  864.4882
  24  876.967
  25  1035.737
  26  1031.523
  27  970.7027
  28  943.3597
  29  917.4078
  30  830.6797
  31  810.0957
  32  863.3932
  33  779.962
  34  896.7942
  35  986.1876
  36  1052.255
  37  1024.271
  38  952.2873
  39  826.805
  40  753.8984
  41  778.495
  42  864.4837
  43  1050.295
  44  1034.7
  45  1031.771
  46  829.4837
  47  760.711
  48  707.9861
  49  726.5577
  50  848.5942
  51  913.0182
  52  939.0649
  53  758.3322
  54  821.1627
  55  867.8438
  56  842.0333
  57  846.9758
  58  964.5159
  59  1037.827
  60  907.4921
  61  850.8976
  62  971.0848
  63  911.3943
  64  791.2175
  65  846.6105
  66  787.1461
  67  873.1168
  68  922.7695
  69  1039.204
  70  987.4705
  71  1008.783
  72  901.7529
  73  802.4984
  74  823.5184
  75  888.6614
  76  1040.333
  77  957.8936
  78  892.3669
  79  907.4814
  80  833.1509
  81  864.3017
  82  897.4152
  83  907.5386
  84  848.6773
  85  900.0098
  86  956.3591
  87  940.9674
  88  903.4729
  89  850.7825
  90  970.9656
  91  971.9576
  92  936.081
  93  927.0674
  94  953.4429
  95  902.9351
  96  859.699
  97  814.6746
  98  787.3803
  99  809.9588
 100  880.8371
 101  899.3159
 102  905.0271
 103  827.7964
 104  892.4623
 105  977.0548
 106  875.4798
 107  861.6321
 108  773.3306
 109  801.3046
 110  763.7567
 111  803.5502
 112  831.6009
 113  843.085
 114  841.2531
 115  829.5342
 116  869.7756
 117  882.6898
 118  891.3608
 119  728.7056
 120  844.188
 121  853.1385
 122  714.7436
 123  787.1957
 124  782.4432
 125  888.219
 126  947.8646
 127  951.0637
 128  841.3169
 129  735.2225
 130  780.7499
 131  804.7928
 132  774.7253
 133  786.5126
 134  818.2778
 135  779.583
 136  719.9659
 137  713.8717
 138  678.8328
 139  673.8654
 140  644.9523
 141  746.5632
 142  853.928
 143  843.8351
 144  955.0453
 145  926.7154
 146  809.1356
 147  630.8859
 148  627.8937
 149  754.5752
 150  782.155
 151  857.4665
 152  950.4548
 153  836.2029
 154  795.7896
 155  735.1525
 156  779.5605
 157  884.9791
 158  787.791
 159  881.4687
 160  971.8744
 161  1018.355
 162  933.3195
 163  859.0267
 164  789.7557
 165  812.64
 166  880.7766
 167  844.2916
 168  875.2663
 169  899.8726
 170  893.2681
 171  913.177
 172  771.3528
 173  784.2264
 174  872.2721
 175  886.3159
 176  775.7368
 177  864.4756
 178  813.715
 179  851.6347
 180  904.8947
 181  829.9037
 182  808.5463
 183  848.6636
 184  869.7759
 185  800.2794
 186  777.426
 187  820.8341
 188  867.8421
 189  883.4018
 190  758.5232
 191  822.4551
 192  886.1601
 193  818.0058
 194  797.6652
 195  733.3134
 196  673.3687
 197  769.1448
 198  885.3303
 199  880.6841
 200  885.0271
 201  932.621
 202  942.7702
 203  916.6834
 204  889.4108
 205  787.592
 206  826.6857
 207  852.4684
 208  838.4986
 209  905.278
 210  1001.784
 211  915.1781
 212  855.155
 213  916.8137
 214  928.232
 215  788.9053
 216  843.6678
 217  1020.761
 218  909.564
 219  1037.023
 220  1069.265
 221  945.7161
 222  803.1586
 223  785.8058
 224  873.6616
 225  959.4447
 226  923.8231
 227  873.0103
 228  803.8487
 229  832.1212
 230  698.2468
 231  764.374
 232  753.6641
 233  833.9177
 234  910.2397
 235  860.8113
 236  827.6463
 237  870.5195
 238  839.2042
 239  798.5252
 240  916.797
 241  1018.409
 242  945.9734
 243  958.6649
 244  921.2612
 245  865.871
 246  883.4545
 247  946.2765
 248  888.1882
 249  868.2657
 250  953.9122
 251  930.0807
 252  817.8569
 253  749.4689
 254  889.9667
 255  946.2635
 256  885.7903
 257  881.259
 258  875.821
 259  794.6673
 260  916.879
 261  842.3095
 262  707.0865
 263  688.3946
 264  824.9132
 265  826.4641
 266  816.0025
 267  886.4485
 268  872.2091
 269  896.8061
 270  857.7905
 271  836.7009
 272  729.7935
 273  703.8062
 274  864.9113
 275  921.9356
 276  802.9219
 277  682.7384
 278  633.6437
 279  648.099
 280  820.3918
 281  822.1489
 282  880.2639
 283  880.1107
 284  857.6201
 285  777.9885
 286  827.8321
 287  829.9366
 288  807.5705
 289  813.5522
 290  816.1221
 291  824.8277
 292  800.7515
 293  787.1014
 294  820.6995
 295  813.8475
 296  774.2031
 297  740.3892
 298  784.793
 299  708.3755
 300  753.0945
 301  820.6077
 302  856.7395
 303  847.0991
 304  807.4628
 305  862.8966
 306  815.933
 307  881.7048
 308  895.7629
 309  819.576
 310  880.5853
 311  913.7211
 312  796.6606
 313  781.113
 314  731.8107
 315  815.9086
 316  759.0365
 317  943.1646
 318  878.5054
 319  734.33
 320  719.5721
 321  704.6606
 322  768.6487
 323  844.7865
 324  820.5253
 325  742.482
 326  808.9334
 327  749.3774
 328  764.9518
 329  743.4526
 330  777.8406
 331  788.0895
 332  962.8719
 333  950.4053
 334  868.2567
 335  838.5193
 336  945.6122
 337  997.1532
 338  860.871
 339  856.705
 340  869.3059
 341  941.3286
 342  885.8383
 343  840.7818
 344  806.8412
 345  853.7979
 346  901.0772
 347  851.9653
 348  834.4646
 349  953.5809
 350  1027.603
 351  949.4617
 352  870.384
 353  995.5065
 354  954.885
 355  877.348
 356  963.7187
 357  945.7054
 358  926.2213
 359  952.0926
 360  1022.807
 361  1014.842
 362  961.4089
 363  1141.757
 364  1053.582
 365  932.7729
 366  974.7097
 367  1008.697
 368  974.2407
 369  833.8537
 370  791.0434
 371  888.0391
 372  952.6569
 373  1031.588
 374  959.5676
 375  1067.773
 376  944.2645
 377  931.6468
 378  893.1628
 379  996.291
 380  1063.33
 381  1099.575
 382  1129.763
 383  1118.191
 384  1121.155
 385  1049.069
 386  990.4504
 387  968.989
 388  933.5564
 389  1013.98
 390  1098.435
 391  1165.314
 392  1138.896
 393  937.9484
 394  896.1122
 395  985.1716
 396  916.3138
 397  1016.172
 398  1060.984
 399  1097.848
 400  1010.598
 401  885.9587
 402  884.6019
 403  844.9307
 404  867.3469
 405  1074.356
 406  1083.631
 407  982.9581
 408  1100.29
 409  1125.241
 410  1103.57
 411  1027.297
 412  989.4796
 413  1125.95
 414  1047.683
 415  1052.63
 416  1127.012
 417  1117.109
 418  1064.847
 419  960.5414
 420  987.304
 421  1067.89
 422  1057.278
 423  1060.38
 424  1096.955
 425  1078.757
 426  991.381
 427  933.2977
 428  1008.013
 429  1062.82
 430  1035.985
 431  1050.736
 432  1052.655
 433  944.4401
 434  922.1523
 435  1045.383
 436  1087.11
 437  971.7209
 438  1093.927
 439  1164.876
 440  1068.273
 441  978.0422
 442  1004.209
 443  924.6019
 444  912.7292
 445  883.8737
 446  1016.466
 447  1039.093
 448  986.8878
 449  966.2099
 450  973.5556
 451  982.8548
 452  950.4365
 453  1027.509
 454  1064.955
 455  1091.611
 456  1021.938
 457  987.4654
 458  991.0817
 459  917.4197
 460  874.3
 461  899.9539
 462  927.4128
 463  1009.444
 464  1051.701
 465  1084.852
 466  1016.338
 467  869.4148
 468  953.5435
 469  937.8422
 470  1025.836
 471  1047.399
 472  1076.921
 473  1128.74
 474  1132.038
 475  1108.26
 476  1062.936
 477  805.0156
 478  917.8505
 479  918.8092
 480  1046.079
 481  1134.851
 482  1076.553
 483  984.963
 484  879.3628
 485  898.6097
 486  912.514
 487  958.3034
 488  1009.247
 489  1052.464
 490  1059.742
 491  1058.93
 492  1054.043
 493  935.0845
 494  1040.395
 495  998.5256
 496  946.6025
 497  1046.453
 498  1163.92
 499  1201.25
 500  1103.73
 501  995.4288
 502  958.1247
 503  1056.671
 504  971.7794
 505  1132.76
 506  1185.142
 507  1192.704
 508  1308.692
 509  1345.186
 510  1605.901
 511  1741.933
