# Input file       =  1210752853.118745_cleaned.dat
# Candidate        =  PSR_0332+5434
# Telescope        =  AR
# Epoch_topo       =  58257.343427300293
# Epoch_bary       =  N/A
# T_sample         =  0.002
# Data Folded      =  7340032
# Data Avg         =  0.0867516374439994
# Data StdDev      =  4.74857827857762 
# Profile Bins     =  512
# Profile Avg      =  1243.50704704122 
# Profile StdDev   =  568.561695766855 
# Reduced chi-sqr  =  1.248
# Prob(Noise)      <  0.000111   (~3.7 sigma)
# P_topo (ms)      =  714.529338849699  +/- 0.000412
# P'_topo (s/s)    =  -0                +/- 2.17e-10
# P''_topo (s/s^2) =  0                 +/- 9.6e-14
# P_bary (ms)      =  N/A
# P'_bary (s/s)    =  N/A
# P''_bary (s/s^2) =  N/A
# P_orb (s)        =  N/A
# asin(i)/c (s)    =  N/A
# eccentricity     =  N/A
# w (rad)          =  N/A
# T_peri           =  N/A
######################################################
   0  1162.877
   1  1380.56
   2  1316.353
   3  1176.877
   4  1206.249
   5  1285.478
   6  1500.124
   7  1458.898
   8  1388.082
   9  1121.235
  10  1134.311
  11  1213.728
  12  1013.24
  13  1419.048
  14  1946.526
  15  1652.46
  16  1509.276
  17  1644.693
  18  1681.23
  19  1428.629
  20  1547.117
  21  1484.976
  22  1212.887
  23  1027.229
  24  1083.417
  25  1460.458
  26  942.4939
  27  718.0643
  28  672.5855
  29  931.4614
  30  837.4348
  31  724.8745
  32  1179.813
  33  1207.579
  34  786.9534
  35  888.1046
  36  936.1866
  37  363.4083
  38  119.3457
  39  329.1415
  40  491.4754
  41  374.0954
  42  -41.8131
  43  300.2197
  44  188.4229
  45  25.74797
  46  260.9135
  47  234.8589
  48  627.6348
  49  403.7704
  50  292.7426
  51  352.7149
  52  541.4976
  53  388.6897
  54  275.7569
  55  563.868
  56  570.7536
  57  522.1863
  58  718.3705
  59  575.1517
  60  615.8156
  61  804.058
  62  947.0728
  63  1069.336
  64  1139.629
  65  908.9365
  66  989.3176
  67  795.1458
  68  919.9003
  69  904.556
  70  1050.18
  71  971.8341
  72  696.3702
  73  793.4469
  74  924.6125
  75  921.8416
  76  1192.919
  77  987.7888
  78  429.2722
  79  251.2889
  80  406.5085
  81  792.7408
  82  852.8007
  83  940.4836
  84  990.7769
  85  755.7979
  86  628.3978
  87  862.2746
  88  1207.493
  89  1159.88
  90  858.8979
  91  850.9448
  92  1205.183
  93  1318.832
  94  1318.748
  95  1239.846
  96  1181.982
  97  1062.924
  98  1224.077
  99  1441.122
 100  1422.715
 101  1213.622
 102  1491.594
 103  1303.847
 104  1597.538
 105  1575.067
 106  1853.266
 107  1678.668
 108  1494.939
 109  1531.617
 110  1566.447
 111  1106.927
 112  1094.138
 113  1210.313
 114  1063.953
 115  1340.596
 116  1479.846
 117  1412.953
 118  1251.333
 119  1011.808
 120  987.6854
 121  967.4029
 122  1210.548
 123  1364.518
 124  1392.322
 125  1219.839
 126  1043.104
 127  949.2864
 128  1069.445
 129  704.2977
 130  851.2336
 131  998.3536
 132  1366.74
 133  1179.58
 134  1000.76
 135  1141.999
 136  1140.533
 137  896.659
 138  1134.947
 139  1237.563
 140  1512.642
 141  1297.411
 142  836.1844
 143  830.3976
 144  965.0052
 145  1188.603
 146  1218.596
 147  1136.311
 148  1585.899
 149  1448.415
 150  1376.869
 151  1366.534
 152  1434.584
 153  1377.599
 154  1445.501
 155  1677.539
 156  1413.472
 157  1173.966
 158  1449.615
 159  1536.49
 160  1051.714
 161  605.7701
 162  601.6131
 163  654.8801
 164  887.058
 165  873.7413
 166  519.2042
 167  515.9435
 168  780.4897
 169  612.2562
 170  882.6713
 171  1390.382
 172  1224.269
 173  1072.667
 174  888.6684
 175  982.9423
 176  893.4807
 177  1162.199
 178  987.6766
 179  1309.434
 180  1166.805
 181  954.8619
 182  1033.014
 183  1400.161
 184  1438.203
 185  1630.883
 186  1325.148
 187  1273.752
 188  1399.586
 189  1543.029
 190  1572.046
 191  1352.713
 192  1582.998
 193  1433.519
 194  1213.296
 195  1495.758
 196  1413.064
 197  1272.419
 198  1178.922
 199  888.8298
 200  990.0303
 201  1077.22
 202  754.4718
 203  953.7308
 204  1241.61
 205  805.2682
 206  624.9471
 207  918.642
 208  824.1595
 209  927.6532
 210  1064.772
 211  1090.891
 212  853.5076
 213  555.3608
 214  859.7936
 215  1024.38
 216  1000.443
 217  298.1956
 218  238.5312
 219  493.2581
 220  563.1201
 221  642.2478
 222  776.9411
 223  952.572
 224  989.6292
 225  1275.048
 226  1273.307
 227  1257.237
 228  1130.905
 229  1373.512
 230  1589.677
 231  1713.182
 232  1465.115
 233  927.7166
 234  828.4891
 235  1304.507
 236  1612.09
 237  1224.398
 238  1213.872
 239  1382.442
 240  1144.481
 241  760.7812
 242  1080.73
 243  1192.809
 244  1417.093
 245  951.8607
 246  961.1918
 247  1142.359
 248  894.5352
 249  732.0932
 250  786.3544
 251  1132.143
 252  1624.584
 253  1606.529
 254  1460.002
 255  1463.466
 256  1208.256
 257  1041.77
 258  1187.155
 259  1486.724
 260  1418.662
 261  1570.121
 262  1445.226
 263  1503.013
 264  1725.404
 265  1817.15
 266  1632.953
 267  1855.91
 268  1909.958
 269  1791.155
 270  1540.31
 271  1632.338
 272  1872.546
 273  1982.502
 274  2094.222
 275  1830.51
 276  2119.261
 277  2063.482
 278  1953.557
 279  1704.844
 280  1592.201
 281  2213.667
 282  2278.876
 283  2160.334
 284  2111.632
 285  1868.891
 286  1562.508
 287  1480.135
 288  1528.609
 289  1275.25
 290  1307.825
 291  1617.717
 292  1693.803
 293  1153.503
 294  950.4042
 295  1269.809
 296  1118.243
 297  954.9227
 298  1134.846
 299  607.8691
 300  630.4467
 301  993.1682
 302  1224.552
 303  1323.659
 304  1408.136
 305  1231.608
 306  1059.473
 307  1208.715
 308  762.7855
 309  782.2798
 310  763.287
 311  1015.016
 312  878.2325
 313  758.7036
 314  1113.772
 315  926.6364
 316  967.7177
 317  1005.591
 318  843.1404
 319  961.499
 320  1233.494
 321  1340.13
 322  1237.098
 323  1046.837
 324  675.9341
 325  534.6939
 326  640.8166
 327  624.3475
 328  951.4169
 329  937.8328
 330  435.426
 331  564.8807
 332  767.6217
 333  803.2216
 334  878.7724
 335  933.9739
 336  853.0298
 337  860.184
 338  960.0952
 339  620.2548
 340  677.6743
 341  907.165
 342  683.4401
 343  626.5982
 344  1048.138
 345  822.0089
 346  996.3436
 347  1458.457
 348  1593.616
 349  1449.913
 350  1149.187
 351  1181.082
 352  1138.226
 353  1534.344
 354  1890.216
 355  1790.647
 356  1727.724
 357  1742.45
 358  1636.731
 359  1691.163
 360  1441.545
 361  1965.246
 362  1876.371
 363  1841.431
 364  1540.021
 365  1636.621
 366  2090.098
 367  2013.782
 368  2233.628
 369  1901.628
 370  1298.73
 371  1471.803
 372  1587.202
 373  1548.605
 374  1826.129
 375  1699.681
 376  1631.575
 377  1596.148
 378  1601.806
 379  1717.733
 380  1444.419
 381  1874.907
 382  1533.461
 383  1674.468
 384  1947.126
 385  1704.256
 386  1826.848
 387  2242.156
 388  2166.196
 389  1877.91
 390  1678.219
 391  1957.152
 392  2213.843
 393  2110.446
 394  1964.555
 395  1780.802
 396  2459.067
 397  2120.026
 398  1843.51
 399  1936.454
 400  2197.15
 401  1925.842
 402  1402.899
 403  1638.092
 404  1779.02
 405  1794.946
 406  1835.575
 407  1945.772
 408  1832.691
 409  1692.114
 410  1369.276
 411  1678.455
 412  1737.749
 413  1328.532
 414  1365.12
 415  1765.21
 416  1516.798
 417  1435.394
 418  1369.709
 419  1237.852
 420  1264.058
 421  1230.976
 422  950.7869
 423  997.6769
 424  840.9957
 425  949.9178
 426  1198.527
 427  1078.201
 428  1113.252
 429  1153.595
 430  1288.732
 431  1022.139
 432  838.4731
 433  1146.45
 434  1106.573
 435  1233.01
 436  1336.859
 437  1348.736
 438  1096.698
 439  863.4937
 440  1046.31
 441  1013.812
 442  1172.63
 443  1161.884
 444  1403.294
 445  1211.163
 446  854.6943
 447  680.2761
 448  1001.498
 449  1095.798
 450  1352.333
 451  1437.326
 452  1643.399
 453  1559.936
 454  1672.816
 455  1299.274
 456  715.4026
 457  1026.748
 458  1048.795
 459  893.4357
 460  785.1085
 461  696.5778
 462  709.5729
 463  1294.179
 464  1252.396
 465  1090.635
 466  773.7604
 467  988.0401
 468  1708.991
 469  2154.678
 470  2564.714
 471  2911.12
 472  2976.338
 473  2407.605
 474  2291.991
 475  1828.409
 476  1112.301
 477  1106.687
 478  1101.701
 479  898.285
 480  1003.862
 481  1353.208
 482  1751.731
 483  1808.494
 484  1783.068
 485  1972.435
 486  1797.484
 487  1895.769
 488  2046.762
 489  2150.719
 490  2004.363
 491  2058.041
 492  1805.516
 493  1716.995
 494  1706.195
 495  1756.917
 496  1603.735
 497  1740.357
 498  1573.903
 499  1709.49
 500  1960.188
 501  1718.703
 502  1378.47
 503  1423.772
 504  1344.691
 505  954.726
 506  1074.427
 507  1396.606
 508  1397.917
 509  1412.116
 510  1496.417
 511  1266.901
