# Input file       =  1210221222.103815_cleaned.dat
# Candidate        =  PSR_0332+5434
# Telescope        =  AR
# Epoch_topo       =  58251.190290553415
# Epoch_bary       =  N/A
# T_sample         =  0.002
# Data Folded      =  7208960
# Data Avg         =  0.0422374674878121
# Data StdDev      =  0.999991071909131
# Profile Bins     =  512
# Profile Avg      =  594.683226047492 
# Profile StdDev   =  118.658116393627 
# Reduced chi-sqr  =  2.040
# Prob(Noise)      <  1.25e-38   (~12.9 sigma)
# P_topo (ms)      =  714.535334251207  +/- 0.00012
# P'_topo (s/s)    =  -0                +/- 6.43e-11
# P''_topo (s/s^2) =  0                 +/- 2.89e-14
# P_bary (ms)      =  N/A
# P'_bary (s/s)    =  N/A
# P''_bary (s/s^2) =  N/A
# P_orb (s)        =  N/A
# asin(i)/c (s)    =  N/A
# eccentricity     =  N/A
# w (rad)          =  N/A
# T_peri           =  N/A
######################################################
   0  1521.224
   1  1390.824
   2  1078.208
   3  635.4775
   4  474.0348
   5  457.1578
   6  483.4972
   7  517.5953
   8  526.2455
   9  520.5165
  10  547.1461
  11  637.858
  12  547.3531
  13  514.0182
  14  544.1155
  15  740.9445
  16  744.3746
  17  561.7695
  18  407.7883
  19  370.1122
  20  334.234
  21  378.6494
  22  405.2652
  23  512.3981
  24  624.5135
  25  637.8633
  26  642.8645
  27  582.1713
  28  484.203
  29  520.2172
  30  652.6876
  31  567.0288
  32  563.774
  33  585.5963
  34  599.8618
  35  624.1044
  36  576.0419
  37  463.637
  38  429.5677
  39  537.7967
  40  583.1308
  41  531.1221
  42  546.5343
  43  445.2898
  44  397.8369
  45  549.4327
  46  567.4918
  47  554.6844
  48  551.0023
  49  569.4253
  50  597.988
  51  502.6575
  52  459.5372
  53  580.0375
  54  576.2001
  55  578.0807
  56  479.5247
  57  501.2467
  58  577.2876
  59  667.3521
  60  616.5101
  61  564.3929
  62  487.18
  63  552.1843
  64  617.55
  65  623.4537
  66  577.4061
  67  533.3403
  68  389.8819
  69  385.4011
  70  445.4654
  71  552.4246
  72  512.8505
  73  561.6359
  74  685.5414
  75  722.2505
  76  623.0875
  77  484.1263
  78  519.653
  79  522.5355
  80  415.3775
  81  462.3892
  82  543.6851
  83  393.8937
  84  322.8748
  85  479.5175
  86  535.6891
  87  424.417
  88  447.3188
  89  474.5273
  90  573.1597
  91  561.4778
  92  565.6943
  93  607.1289
  94  559.9177
  95  430.4693
  96  467.5909
  97  670.0247
  98  645.6174
  99  655.3388
 100  519.9816
 101  516.0743
 102  404.4829
 103  421.3634
 104  348.8558
 105  408.7457
 106  597.8616
 107  572.7318
 108  382.2312
 109  513.6212
 110  619.9727
 111  557.0317
 112  564.5405
 113  498.1084
 114  485.5625
 115  517.8738
 116  577.6892
 117  476.3379
 118  443.9162
 119  544.9047
 120  593.511
 121  637.045
 122  609.7691
 123  676.5713
 124  690.467
 125  604.614
 126  581.1732
 127  546.2291
 128  600.5096
 129  576.6917
 130  543.9379
 131  616.8835
 132  649.6844
 133  638.2876
 134  444.004
 135  453.1095
 136  532.7802
 137  679.5201
 138  640.2987
 139  573.3698
 140  632.4417
 141  592.4908
 142  589.6479
 143  632.6006
 144  615.5212
 145  589.5715
 146  594.3337
 147  561.0566
 148  542.8387
 149  505.8688
 150  520.4134
 151  628.6503
 152  638.9066
 153  660.6951
 154  678.3195
 155  714.6926
 156  711.6486
 157  677.006
 158  640.0145
 159  585.2066
 160  573.321
 161  650.5656
 162  572.1342
 163  531.1197
 164  637.1021
 165  690.2655
 166  629.9632
 167  572.7419
 168  638.0984
 169  601.8004
 170  520.8976
 171  513.2916
 172  603.0517
 173  582.6432
 174  719.4393
 175  787.2323
 176  622.1591
 177  532.9007
 178  494.0417
 179  616.0343
 180  623.3275
 181  599.2733
 182  604.8456
 183  491.0021
 184  351.8068
 185  547.1579
 186  640.8394
 187  658.242
 188  708.5225
 189  704.1633
 190  641.8104
 191  547.0607
 192  594.0385
 193  540.3528
 194  613.6038
 195  777.0613
 196  673.8767
 197  556.91
 198  668.0986
 199  642.9756
 200  561.3597
 201  594.6401
 202  634.1762
 203  641.7745
 204  626.9926
 205  743.1697
 206  730.0646
 207  723.8289
 208  767.7599
 209  797.5316
 210  671.3715
 211  677.9769
 212  732.9208
 213  627.9323
 214  627.5526
 215  636.8544
 216  746.5101
 217  615.6129
 218  571.4897
 219  621.2422
 220  593.0974
 221  586.8201
 222  713.9518
 223  816.5977
 224  671.6161
 225  583.7576
 226  644.1246
 227  699.3066
 228  690.1637
 229  601.0396
 230  684.8015
 231  755.5893
 232  671.0914
 233  612.8209
 234  701.8689
 235  645.5602
 236  696.9089
 237  717.625
 238  742.6404
 239  800.1191
 240  655.6493
 241  649.658
 242  634.5008
 243  559.6467
 244  620.5257
 245  676.3849
 246  625.7778
 247  649.0886
 248  644.5167
 249  751.3872
 250  707.6735
 251  732.6315
 252  710.7326
 253  749.6011
 254  568.8318
 255  620.5296
 256  753.5425
 257  796.7488
 258  732.5547
 259  639.835
 260  735.416
 261  663.1252
 262  624.7971
 263  766.2854
 264  709.3702
 265  553.077
 266  593.3323
 267  631.178
 268  736.8766
 269  692.5241
 270  698.2416
 271  708.8014
 272  699.4149
 273  696.423
 274  666.9761
 275  573.0452
 276  626.203
 277  526.7373
 278  592.6521
 279  568.9328
 280  662.6492
 281  683.7416
 282  688.4253
 283  615.6983
 284  520.6591
 285  581.6727
 286  566.5563
 287  647.4122
 288  797.912
 289  821.0843
 290  670.32
 291  522.7752
 292  579.49
 293  602.1422
 294  542.669
 295  662.4853
 296  742.113
 297  737.2799
 298  683.2298
 299  677.1999
 300  690.965
 301  749.1047
 302  616.8897
 303  602.1392
 304  686.3357
 305  697.2813
 306  648.8276
 307  573.4563
 308  547.4883
 309  611.4554
 310  628.3488
 311  560.4799
 312  582.5602
 313  582.6486
 314  638.0922
 315  573.8467
 316  598.4814
 317  591.2486
 318  577.491
 319  556.7951
 320  525.0355
 321  548.8956
 322  648.3461
 323  654.453
 324  593.0999
 325  610.201
 326  643.9724
 327  659.3339
 328  585.1993
 329  565.595
 330  649.6949
 331  612.6702
 332  513.0208
 333  638.2035
 334  632.2964
 335  516.4366
 336  645.3546
 337  812.4338
 338  810.3121
 339  699.9581
 340  545.8615
 341  413.1586
 342  558.7839
 343  674.2659
 344  555.5118
 345  529.7042
 346  563.4824
 347  570.0164
 348  467.7076
 349  434.8356
 350  398.4764
 351  497.6196
 352  506.5228
 353  574.9059
 354  590.7955
 355  619.7065
 356  627.4253
 357  675.9221
 358  604.5071
 359  680.444
 360  723.2683
 361  644.2318
 362  534.883
 363  514.5298
 364  692.3988
 365  591.4353
 366  546.4716
 367  573.767
 368  549.8034
 369  589.8386
 370  567.2976
 371  574.8428
 372  590.7706
 373  473.2985
 374  479.2679
 375  641.6533
 376  549.951
 377  508.2918
 378  550.9348
 379  526.7388
 380  639.6594
 381  640.3467
 382  520.7953
 383  476.3645
 384  444.3784
 385  619.2501
 386  483.6345
 387  447.3673
 388  638.1263
 389  652.8014
 390  577.7353
 391  631.2542
 392  568.0491
 393  523.3207
 394  549.2195
 395  503.3288
 396  510.954
 397  500.176
 398  485.7514
 399  515.5087
 400  514.1727
 401  448.7031
 402  655.7357
 403  693.8859
 404  657.8229
 405  532.6194
 406  627.5016
 407  637.8026
 408  669.3604
 409  651.1481
 410  662.3638
 411  577.0694
 412  547.7175
 413  543.1284
 414  521.8777
 415  540.346
 416  519.7068
 417  618.0958
 418  549.0676
 419  586.6418
 420  671.7988
 421  670.5893
 422  623.0058
 423  588.8049
 424  642.8624
 425  557.23
 426  443.2395
 427  591.3765
 428  640.8939
 429  529.5226
 430  538.7013
 431  596.7403
 432  621.7042
 433  578.3753
 434  468.5495
 435  634.585
 436  648.6823
 437  637.1519
 438  647.9019
 439  675.7074
 440  604.6135
 441  533.661
 442  572.305
 443  576.227
 444  532.4208
 445  658.1844
 446  669.848
 447  629.0209
 448  631.7062
 449  598.7215
 450  458.1736
 451  533.3492
 452  514.8923
 453  656.5416
 454  724.2631
 455  655.3102
 456  646.0496
 457  474.4047
 458  477.0355
 459  618.457
 460  596.196
 461  629.3549
 462  652.0244
 463  522.1019
 464  525.4329
 465  510.3145
 466  408.2733
 467  380.4233
 468  539.9267
 469  495.6209
 470  491.6289
 471  569.2803
 472  504.1577
 473  551.762
 474  591.095
 475  567.5324
 476  476.6523
 477  485.1779
 478  499.6928
 479  593.1192
 480  478.3134
 481  565.4479
 482  440.2066
 483  353.7373
 484  437.5281
 485  480.1919
 486  457.4342
 487  510.6283
 488  523.0881
 489  557.9488
 490  405.6432
 491  443.5236
 492  531.5894
 493  604.7152
 494  547.0811
 495  468.0665
 496  421.795
 497  437.9342
 498  453.2106
 499  430.4535
 500  514.5517
 501  502.057
 502  552.7529
 503  606.8999
 504  648.4982
 505  626.915
 506  703.4579
 507  660.5801
 508  714.8788
 509  1024.106
 510  1372.92
 511  1618.093
