# Input file       =  1210423124.123347_cleaned.dat
# Candidate        =  PSR_0332+5434
# Telescope        =  AR
# Epoch_topo       =  58253.527119483180
# Epoch_bary       =  N/A
# T_sample         =  0.002
# Data Folded      =  7340032
# Data Avg         =  0.247315352145442
# Data StdDev      =  4.67749780622043 
# Profile Bins     =  1024
# Profile Avg      =  1772.96349055878 
# Profile StdDev   =  396.015870505902 
# Reduced chi-sqr  =  0.782
# Prob(Noise)      <  1   (~0.0 sigma)
# P_topo (ms)      =  714.533413590165  +/- 0.000432
# P'_topo (s/s)    =  -0                +/- 2.28e-10
# P''_topo (s/s^2) =  0                 +/- 1.01e-13
# P_bary (ms)      =  N/A
# P'_bary (s/s)    =  N/A
# P''_bary (s/s^2) =  N/A
# P_orb (s)        =  N/A
# asin(i)/c (s)    =  N/A
# eccentricity     =  N/A
# w (rad)          =  N/A
# T_peri           =  N/A
######################################################
   0  1975.764
   1  1904.589
   2  1883.038
   3  1868.296
   4  1850.428
   5  1880.81
   6  1804.934
   7  1723.31
   8  1798.914
   9  1908.247
  10  1957.856
  11  1970.112
  12  1900.408
  13  1842.913
  14  1707.775
  15  1638.827
  16  1683.771
  17  1707.419
  18  1827.849
  19  1722.002
  20  1734.582
  21  1832.064
  22  1924.058
  23  1985.342
  24  1927.565
  25  1956.977
  26  2033.493
  27  2018.005
  28  1961.786
  29  1902.284
  30  1743.127
  31  1538.834
  32  1522.584
  33  1584.135
  34  1635.745
  35  1547.673
  36  1673.919
  37  1798.827
  38  1789.344
  39  1870.962
  40  1986.775
  41  2146.27
  42  2084.66
  43  2020.288
  44  1866.006
  45  1725.026
  46  1687.089
  47  1695.342
  48  1843.672
  49  1873.666
  50  1879.094
  51  1883.316
  52  1902.254
  53  2071.428
  54  2125.933
  55  2099.125
  56  2005.502
  57  1920.692
  58  1842.037
  59  1808.178
  60  1866.162
  61  1876.933
  62  1915.607
  63  1832.689
  64  1752.479
  65  1739.374
  66  1754.485
  67  1718.875
  68  1741.506
  69  1764.077
  70  1800.123
  71  1792.834
  72  1818.163
  73  1831.779
  74  1733.455
  75  1712.411
  76  1675.303
  77  1723.033
  78  1649.648
  79  1549.486
  80  1550.655
  81  1527.356
  82  1695.488
  83  1832.879
  84  1883.7
  85  1825.519
  86  1695.999
  87  1655.996
  88  1586.021
  89  1527.57
  90  1457.469
  91  1513.395
  92  1507.223
  93  1594.913
  94  1607.32
  95  1628.274
  96  1558.189
  97  1572.905
  98  1710.147
  99  1590.506
 100  1557.514
 101  1526.954
 102  1674.968
 103  1664.584
 104  1637.231
 105  1549.751
 106  1465.429
 107  1583.677
 108  1672.285
 109  1760.803
 110  1677.841
 111  1626.597
 112  1623.226
 113  1610.028
 114  1593.405
 115  1559.684
 116  1555.734
 117  1577.921
 118  1572.331
 119  1584.554
 120  1769.076
 121  1845.204
 122  1929.19
 123  1815.647
 124  1829.707
 125  1858.355
 126  1932.477
 127  2015.519
 128  1883.4
 129  1709.979
 130  1528.848
 131  1520.532
 132  1547.116
 133  1638.629
 134  1693.361
 135  1758.735
 136  1922.438
 137  2030.833
 138  2108.676
 139  1989.844
 140  1870.804
 141  1654.205
 142  1606.955
 143  1547.539
 144  1601.633
 145  1677.403
 146  1751.861
 147  1766.402
 148  1678.351
 149  1641.001
 150  1660.251
 151  1765.58
 152  1816.141
 153  1719.569
 154  1627.79
 155  1625.464
 156  1558.081
 157  1469.706
 158  1338.379
 159  1473.419
 160  1660.017
 161  1709.651
 162  1683.53
 163  1510.084
 164  1487.198
 165  1427.518
 166  1569.419
 167  1737.669
 168  1781.706
 169  1858.11
 170  1919.386
 171  1879.238
 172  1849.696
 173  1680.724
 174  1632.027
 175  1557.375
 176  1619.206
 177  1756.456
 178  1836.001
 179  1862.315
 180  1926.715
 181  1930.077
 182  2058.711
 183  1939.126
 184  1779.387
 185  1640.95
 186  1472.474
 187  1481.862
 188  1452.692
 189  1540.488
 190  1594.477
 191  1848.378
 192  2057.249
 193  2140.533
 194  2026.464
 195  1881.974
 196  1907.44
 197  1854.892
 198  2005.958
 199  1963.015
 200  1914.764
 201  1937.335
 202  1947.569
 203  1939.822
 204  1861.447
 205  1904.305
 206  1860.415
 207  1808.816
 208  1636.339
 209  1665.062
 210  1703.589
 211  1709.514
 212  1878.36
 213  1814.111
 214  1693.541
 215  1592.605
 216  1604.529
 217  1736.022
 218  1825.676
 219  1824.371
 220  1793.776
 221  1697.487
 222  1717.588
 223  1707.089
 224  1719.908
 225  1608.273
 226  1532.594
 227  1498.463
 228  1569.228
 229  1598.602
 230  1542.212
 231  1445.558
 232  1427.297
 233  1548.985
 234  1681.162
 235  1740.898
 236  1768.7
 237  1816.514
 238  1819.512
 239  1842.583
 240  1784.166
 241  1758.07
 242  1800.136
 243  1929.536
 244  1935.635
 245  1762.247
 246  1638.672
 247  1682.215
 248  1794.264
 249  1771.254
 250  1668.414
 251  1524.033
 252  1467.253
 253  1471.732
 254  1559.828
 255  1598.336
 256  1599.809
 257  1535.802
 258  1450.82
 259  1429.73
 260  1466.364
 261  1427.955
 262  1380.566
 263  1484.233
 264  1640.29
 265  1842.892
 266  1838.235
 267  1639.699
 268  1483.66
 269  1483.768
 270  1725.592
 271  1707.148
 272  1662.448
 273  1560.505
 274  1646.874
 275  1655.709
 276  1664.878
 277  1711.322
 278  1792.513
 279  1648.65
 280  1550.957
 281  1499.403
 282  1529.196
 283  1666.356
 284  1728.326
 285  1888.779
 286  1829.919
 287  1839.926
 288  1679.939
 289  1682.595
 290  1707.165
 291  1748.057
 292  1749.473
 293  1767.775
 294  1830.797
 295  1828.928
 296  1887.306
 297  1962.693
 298  2062.978
 299  2094.107
 300  1956.87
 301  1961.034
 302  2015.607
 303  1877.233
 304  1768.261
 305  1737.513
 306  1827.819
 307  1769.511
 308  1812.776
 309  1913.972
 310  1839.443
 311  1698.569
 312  1732.915
 313  1805.752
 314  1795.821
 315  1706.818
 316  1764.388
 317  1819.532
 318  1957.567
 319  1973.474
 320  1973.819
 321  1805.795
 322  1683.748
 323  1760.503
 324  1833.744
 325  1921.583
 326  1910.161
 327  1767.481
 328  1657.685
 329  1545.955
 330  1636.341
 331  1705.155
 332  1595.281
 333  1571.552
 334  1575.828
 335  1657.757
 336  1623.469
 337  1642.086
 338  1765.96
 339  1869.433
 340  1861.74
 341  1781.364
 342  1778.97
 343  1761.937
 344  1705.968
 345  1663.256
 346  1851.625
 347  1884.224
 348  1792.225
 349  1755.592
 350  1792.574
 351  1686.753
 352  1677.546
 353  1720.461
 354  1805.522
 355  1847.768
 356  1769.01
 357  1666.658
 358  1561.502
 359  1573.47
 360  1624.112
 361  1760.12
 362  1878.33
 363  1861.604
 364  1755.898
 365  1524.993
 366  1596.661
 367  1728.98
 368  1756.349
 369  1617.808
 370  1589.06
 371  1575.97
 372  1635.288
 373  1690.751
 374  1891.593
 375  1981.782
 376  1996.25
 377  1820.797
 378  1684.303
 379  1661.896
 380  1754.457
 381  1741.031
 382  1686.898
 383  1691.767
 384  1808.986
 385  1837.534
 386  1720.794
 387  1725.117
 388  1811.719
 389  1828.106
 390  1752.237
 391  1816.715
 392  1843.744
 393  1825.962
 394  1754.108
 395  1772.964
 396  1758.668
 397  1690.905
 398  1621.414
 399  1602.471
 400  1407.033
 401  1362.564
 402  1321.846
 403  1486.877
 404  1549.033
 405  1649.988
 406  1778.514
 407  1816.148
 408  1690.409
 409  1590.288
 410  1604.945
 411  1592.707
 412  1695.954
 413  1683.246
 414  1658.638
 415  1556.977
 416  1499.332
 417  1616.298
 418  1739.678
 419  1772.616
 420  1647.27
 421  1572.41
 422  1644.619
 423  1733.429
 424  1773.938
 425  1722.63
 426  1768.252
 427  1866.5
 428  1793.334
 429  1881.914
 430  1841.094
 431  1919.742
 432  1859.599
 433  1818.342
 434  1852.328
 435  1829.184
 436  1969.794
 437  1908.669
 438  1927.464
 439  1966.131
 440  1959.9
 441  1923.366
 442  1879.058
 443  1811.329
 444  1743.897
 445  1711.121
 446  1808.889
 447  1891.497
 448  1987.984
 449  2027.422
 450  2085.706
 451  2011.967
 452  1960.12
 453  1834.846
 454  1959.922
 455  1836.714
 456  1794.058
 457  1826.929
 458  1933.486
 459  2066.092
 460  2019.936
 461  1992.522
 462  1938.871
 463  1871.698
 464  1930.872
 465  1953.338
 466  1926.116
 467  1893.44
 468  1895.431
 469  1939.318
 470  1867.46
 471  1857.036
 472  1945.921
 473  2027.628
 474  1943.717
 475  1870.608
 476  1715.379
 477  1859.079
 478  1879.828
 479  1910.778
 480  2074.616
 481  2154.39
 482  2087.034
 483  1950.464
 484  1922.14
 485  1891.38
 486  1898.748
 487  1986.839
 488  2090.047
 489  2136.859
 490  2080.773
 491  2018.439
 492  1937.763
 493  1998.75
 494  2125.499
 495  2070.458
 496  1970.51
 497  1891.096
 498  1976.311
 499  1982.632
 500  2024.133
 501  1952.014
 502  1917.855
 503  1908.675
 504  1966.984
 505  1958.713
 506  1969.399
 507  1910.822
 508  1858.102
 509  1808.298
 510  1777.775
 511  1708.359
 512  1575.437
 513  1552.171
 514  1575.379
 515  1676.239
 516  1636.872
 517  1530.317
 518  1625.508
 519  1612.945
 520  1555.845
 521  1529.674
 522  1512.559
 523  1518.393
 524  1474.507
 525  1590.526
 526  1675.311
 527  1605.254
 528  1671.616
 529  1790.604
 530  1793.168
 531  1654.443
 532  1659.542
 533  1921.428
 534  1862.253
 535  1634.504
 536  1453.18
 537  1772.766
 538  1938.914
 539  2036.759
 540  1989.907
 541  1928.546
 542  1826.125
 543  1699.425
 544  1786.805
 545  1900.286
 546  2020.767
 547  1997.066
 548  1838.165
 549  1704.636
 550  1609.392
 551  1677.56
 552  1672.262
 553  1704.359
 554  1704.876
 555  1822.469
 556  1721.556
 557  1747.586
 558  1712.037
 559  1855.272
 560  1930.254
 561  1965.921
 562  1960.227
 563  1868.98
 564  1799.513
 565  1814.041
 566  1799.764
 567  1800.534
 568  1684.11
 569  1637.061
 570  1689.775
 571  1803.977
 572  1859.917
 573  1863.932
 574  1817.438
 575  1799.011
 576  1809.344
 577  1771.323
 578  1770.094
 579  1697.805
 580  1826.601
 581  1876.058
 582  1932.19
 583  1818.833
 584  1680.761
 585  1751.286
 586  1733.729
 587  1921.532
 588  1961.268
 589  1976.084
 590  1936.78
 591  2001.509
 592  2128.894
 593  2155.655
 594  2185.355
 595  2245.998
 596  2503.895
 597  2644.699
 598  2772.186
 599  2768.57
 600  2813.754
 601  2876.746
 602  2997.585
 603  3012.436
 604  2816.842
 605  2531.614
 606  2182.069
 607  2032.201
 608  1906.784
 609  1884.606
 610  1782.838
 611  1817.606
 612  1771.354
 613  1784.093
 614  1833.323
 615  1853.898
 616  1792.68
 617  1763.971
 618  1760.557
 619  1851.126
 620  1884.188
 621  1921.76
 622  1776.975
 623  1774.326
 624  1627.8
 625  1632.851
 626  1586.051
 627  1622.134
 628  1723.145
 629  1830.622
 630  1846.487
 631  1847.108
 632  1766.246
 633  1857.884
 634  1890.145
 635  1891.614
 636  1698.824
 637  1626.807
 638  1686.279
 639  1657.706
 640  1613.993
 641  1638.559
 642  1586.215
 643  1785.68
 644  1816.053
 645  1961.497
 646  1917.75
 647  1901.428
 648  1998.507
 649  1969.573
 650  1923.687
 651  1653.425
 652  1645.465
 653  1734.114
 654  1825.526
 655  1649.211
 656  1573.914
 657  1642.121
 658  1795.064
 659  1779.271
 660  1723.103
 661  1782.868
 662  1819.71
 663  1870.795
 664  1914.869
 665  2036.605
 666  1822.961
 667  1680.48
 668  1641.139
 669  1637.174
 670  1574.362
 671  1536.667
 672  1655.253
 673  1630.073
 674  1610.758
 675  1654.557
 676  1729.745
 677  1896.166
 678  1857.812
 679  1925.419
 680  1937.245
 681  1815.568
 682  1783.42
 683  1858.63
 684  1937.35
 685  1726.032
 686  1580.716
 687  1549.903
 688  1550.918
 689  1673.465
 690  1756.865
 691  1833.249
 692  1823.772
 693  1767.156
 694  1776.423
 695  1679.042
 696  1572.556
 697  1540.873
 698  1528.419
 699  1475.622
 700  1381.338
 701  1342.271
 702  1526.69
 703  1663.846
 704  1728.224
 705  1739.643
 706  1716.152
 707  1761.822
 708  1742.474
 709  1715.151
 710  1631.743
 711  1674.684
 712  1747.156
 713  1836.988
 714  1858.039
 715  1890.513
 716  1887.404
 717  1773.462
 718  1807.899
 719  1933.204
 720  2108.379
 721  2072.626
 722  1934.335
 723  1933.579
 724  1995.817
 725  1977.743
 726  1957.015
 727  1859.946
 728  1782.9
 729  1681.818
 730  1764.6
 731  1858.037
 732  1884.246
 733  1894.103
 734  1842.011
 735  1965.417
 736  2012.291
 737  2007.85
 738  1874.731
 739  1815.945
 740  1798.889
 741  1865.963
 742  1808.369
 743  1848.503
 744  1891.413
 745  1990.309
 746  1955.557
 747  1886.051
 748  1783.717
 749  1707.347
 750  1610.755
 751  1487.323
 752  1492.085
 753  1430.434
 754  1333.208
 755  1430.79
 756  1577.633
 757  1689.982
 758  1569.312
 759  1576.476
 760  1605.257
 761  1661.068
 762  1664.992
 763  1614.644
 764  1621.126
 765  1494.318
 766  1498.442
 767  1442.749
 768  1554.037
 769  1726.464
 770  1706.901
 771  1677.996
 772  1593.09
 773  1652.525
 774  1666.455
 775  1663.114
 776  1667.48
 777  1609.431
 778  1553.099
 779  1729.094
 780  1919.31
 781  1996.485
 782  1889.128
 783  1867.038
 784  1696.091
 785  1635.616
 786  1539.442
 787  1511.425
 788  1505.642
 789  1426.17
 790  1524.964
 791  1652.541
 792  1737.013
 793  1777.498
 794  1757.211
 795  1824.229
 796  1647.679
 797  1496.167
 798  1393.09
 799  1356.737
 800  1436.031
 801  1531.527
 802  1744.509
 803  1831.096
 804  1844.801
 805  1833.11
 806  1728.059
 807  1528.244
 808  1284.489
 809  1383.2
 810  1678.887
 811  1773.948
 812  1742.083
 813  1566.864
 814  1655.176
 815  1794.124
 816  1797.239
 817  1731.674
 818  1627.15
 819  1616.654
 820  1606.429
 821  1669.001
 822  1577.323
 823  1523.071
 824  1503.313
 825  1728.081
 826  1817.086
 827  1759.136
 828  1643.128
 829  1604.922
 830  1694.31
 831  1746.117
 832  1810.354
 833  1841.244
 834  1750.962
 835  1521.962
 836  1491.677
 837  1526.928
 838  1619.05
 839  1586.02
 840  1585.844
 841  1584.525
 842  1705.781
 843  1802.066
 844  1875.075
 845  1846.992
 846  1802.475
 847  1773.326
 848  1823.45
 849  1664.604
 850  1458.919
 851  1392.052
 852  1537.399
 853  1660.251
 854  1604.178
 855  1680.793
 856  1665.872
 857  1734.663
 858  1605.926
 859  1757.047
 860  1882.641
 861  1910.861
 862  1820.776
 863  1659.32
 864  1641.932
 865  1656.866
 866  1837.703
 867  1923.003
 868  1867.843
 869  1810.658
 870  1679.85
 871  1689.894
 872  1460.591
 873  1363.631
 874  1387.652
 875  1570.775
 876  1711.456
 877  1712.138
 878  1687.887
 879  1785.058
 880  1832.138
 881  1957.654
 882  1846.974
 883  1760.616
 884  1776.616
 885  1876.147
 886  1950.226
 887  1802.18
 888  1576.693
 889  1509.866
 890  1611.229
 891  1880.374
 892  1826.386
 893  1883.467
 894  1869.305
 895  1923.602
 896  1849.356
 897  1813.68
 898  1922.372
 899  1963.993
 900  1964.786
 901  2036.637
 902  2102.509
 903  2039.008
 904  1926.385
 905  2025.164
 906  1897.014
 907  1944.807
 908  1859.153
 909  1865.116
 910  1663.409
 911  1611.824
 912  1663.375
 913  1859.794
 914  1803.967
 915  1755.423
 916  1800.776
 917  1886.441
 918  1840.952
 919  1796.552
 920  1849.84
 921  1853.658
 922  1725.057
 923  1559.473
 924  1552.972
 925  1408.488
 926  1334.449
 927  1454.127
 928  1627.376
 929  1731.564
 930  1788.774
 931  1843.65
 932  1869.263
 933  1736.375
 934  1716.025
 935  1639.173
 936  1537.779
 937  1615.693
 938  1560.891
 939  1637.326
 940  1618.441
 941  1619.432
 942  1687.35
 943  1676.957
 944  1777.86
 945  1704.893
 946  1621.887
 947  1527.077
 948  1492.182
 949  1463.677
 950  1365.515
 951  1392.126
 952  1571.543
 953  1671.588
 954  1864.48
 955  1873.018
 956  1883.047
 957  1726.259
 958  1670.025
 959  1803.422
 960  1768.525
 961  1801.844
 962  1698.658
 963  1830.323
 964  1899.977
 965  1948.525
 966  1954.405
 967  1991.408
 968  1942.084
 969  1937.103
 970  1944.547
 971  2003.154
 972  1993.63
 973  2080.757
 974  2098.25
 975  2082.144
 976  1963.707
 977  1892.162
 978  1896.455
 979  1887.933
 980  2098.808
 981  2239.469
 982  2204.025
 983  2074.065
 984  1981.379
 985  2073.234
 986  2027.981
 987  1935.032
 988  2023.311
 989  1983.399
 990  1992.906
 991  1864.239
 992  1972.563
 993  2061.53
 994  2027.804
 995  1959.167
 996  1996.633
 997  2046.68
 998  2073.055
 999  2053.276
1000  2044.672
1001  1967.261
1002  1945.529
1003  1904.801
1004  1823.445
1005  1746.775
1006  1692.137
1007  1731.88
1008  1695.238
1009  1773.433
1010  1862.813
1011  2006.251
1012  1916.171
1013  1881.072
1014  1841.526
1015  1746.589
1016  1585.116
1017  1537.672
1018  1651.57
1019  1710.118
1020  1683.022
1021  1750.908
1022  1916.617
1023  2044.842
