# Input file       =  1210048853.110351_cleaned.dat
# Candidate        =  PSR_0332+5434
# Telescope        =  AR
# Epoch_topo       =  58249.195279054991
# Epoch_bary       =  N/A
# T_sample         =  0.002
# Data Folded      =  7208960
# Data Avg         =  0.352205935403154
# Data StdDev      =  6.59998170781954 
# Profile Bins     =  512
# Profile Avg      =  4958.86146193812 
# Profile StdDev   =  783.148389702245 
# Reduced chi-sqr  =  1.720
# Prob(Noise)      <  6.58e-22   (~9.5 sigma)
# P_topo (ms)      =  714.537254982324  +/- 2.16e-05
# P'_topo (s/s)    =  -0                +/- 1.16e-11
# P''_topo (s/s^2) =  0                 +/- 5.22e-15
# P_bary (ms)      =  N/A
# P'_bary (s/s)    =  N/A
# P''_bary (s/s^2) =  N/A
# P_orb (s)        =  N/A
# asin(i)/c (s)    =  N/A
# eccentricity     =  N/A
# w (rad)          =  N/A
# T_peri           =  N/A
######################################################
   0  4070.483
   1  4595.806
   2  5638.428
   3  5925.725
   4  5780.201
   5  5474.974
   6  5114.554
   7  4235.444
   8  4593.508
   9  5277.754
  10  5507.966
  11  5360.704
  12  5335.541
  13  5098.45
  14  4419.438
  15  4500.788
  16  4254.722
  17  4407.045
  18  5297.536
  19  5996.27
  20  5940.713
  21  5303.124
  22  4986.366
  23  4054.199
  24  3250.53
  25  3440.491
  26  3785.301
  27  4614.439
  28  5641.076
  29  6377.296
  30  6082.097
  31  5133.583
  32  4161.332
  33  3782.674
  34  3803.479
  35  4946.587
  36  5950.34
  37  6350.809
  38  6212.377
  39  4868.209
  40  3887.504
  41  3047.921
  42  3014.574
  43  4014.585
  44  4823.108
  45  5774.429
  46  5518.207
  47  5243.393
  48  4894.146
  49  4697.189
  50  4251.307
  51  4670.742
  52  5346.037
  53  5648.332
  54  5632.727
  55  5907.341
  56  5315.325
  57  4192.092
  58  4011.037
  59  3901.799
  60  4150.852
  61  4606.445
  62  5827.449
  63  5662.024
  64  5648.942
  65  4940.73
  66  4259.097
  67  3980.003
  68  4198.523
  69  5583.19
  70  5498.162
  71  5217.093
  72  5067.249
  73  4394.971
  74  3955.556
  75  4178.55
  76  4614.806
  77  4397.479
  78  5006.997
  79  5027.429
  80  4893.423
  81  4523.872
  82  4474.94
  83  4460.684
  84  4667.464
  85  5322.654
  86  5408.216
  87  5770.824
  88  5112.699
  89  4351.741
  90  3741.858
  91  3808.327
  92  4498.806
  93  4837.927
  94  4963.472
  95  4979.71
  96  4892.394
  97  4572.226
  98  4495.414
  99  4201.36
 100  4399.771
 101  4724.534
 102  5356.952
 103  5258.719
 104  4709.356
 105  4444.405
 106  3660.566
 107  3341.255
 108  3600.8
 109  4371.316
 110  5028.846
 111  5583.77
 112  4993.159
 113  4539.068
 114  4420.115
 115  3376.921
 116  3648.478
 117  4119.502
 118  4997.954
 119  5557.906
 120  5786.444
 121  5126.102
 122  4184.923
 123  3672.62
 124  3581.048
 125  3645.558
 126  4130.838
 127  4823.827
 128  5430.659
 129  5270.682
 130  4549.487
 131  4145.127
 132  3673.401
 133  3348.551
 134  4193.889
 135  5065.335
 136  5558.939
 137  5533.43
 138  5452.002
 139  4472.113
 140  3347.561
 141  3177.825
 142  3517.421
 143  4187.373
 144  4766.02
 145  5626.085
 146  4998.201
 147  4624.197
 148  4232.294
 149  3825.671
 150  4383.936
 151  4511.769
 152  5228.105
 153  5250.951
 154  5537.382
 155  4858.248
 156  4190.11
 157  3848.731
 158  4331.32
 159  4545.993
 160  4570.543
 161  5265.327
 162  5327.938
 163  4984.041
 164  4651.83
 165  3971.355
 166  4002.57
 167  4609.913
 168  5141.727
 169  4801.927
 170  5365.206
 171  4828.605
 172  4226.407
 173  4053.781
 174  4145.89
 175  4497.134
 176  4701.799
 177  4995.041
 178  4804.496
 179  4480.693
 180  4558.615
 181  4443.198
 182  4428.844
 183  4475.678
 184  4786.055
 185  5395.809
 186  5296.506
 187  4969.908
 188  4119.24
 189  3284.587
 190  3600.362
 191  4628.727
 192  5176.758
 193  5451.107
 194  6066.339
 195  5720.992
 196  4968.881
 197  4573.886
 198  4087.855
 199  4305.486
 200  5090.572
 201  5773.375
 202  6029.09
 203  5916.997
 204  5050.85
 205  4213.073
 206  3979.639
 207  3954.243
 208  4226.029
 209  4610.185
 210  6213.017
 211  6021.819
 212  5857.474
 213  5426.006
 214  4826.346
 215  4077.055
 216  3874.257
 217  5186.573
 218  5876.006
 219  6016.343
 220  5806.543
 221  5151.951
 222  4360.516
 223  3154.406
 224  3769.022
 225  4186.35
 226  4749.339
 227  5620.792
 228  5765.9
 229  5086.254
 230  4416.867
 231  4412.532
 232  4040.874
 233  4808.338
 234  5598.817
 235  5660.439
 236  5654.974
 237  5359.388
 238  4886.819
 239  4347.054
 240  4471.515
 241  4579.867
 242  4540.007
 243  4995.764
 244  5476.669
 245  5130.146
 246  4669.964
 247  4854.477
 248  5043.034
 249  4469.256
 250  4726.139
 251  5236.788
 252  4846.932
 253  5065.889
 254  4560.573
 255  4063.059
 256  3872.828
 257  4513.872
 258  4745.056
 259  4549.523
 260  5152.511
 261  5308.752
 262  5164.365
 263  4792.881
 264  4836.585
 265  4417.428
 266  4542.358
 267  5394.704
 268  5767.473
 269  5406.021
 270  4701.127
 271  3705.318
 272  3448.885
 273  4029.598
 274  4527.773
 275  5075.517
 276  5532.006
 277  5728.999
 278  4974.767
 279  4326.285
 280  4312.687
 281  4222.708
 282  4718.329
 283  5230.295
 284  5759.464
 285  5810.023
 286  5138.969
 287  4685.34
 288  3978.072
 289  3597.202
 290  3905.866
 291  4730.95
 292  4954.137
 293  5332.683
 294  5745.551
 295  5187.777
 296  4731.025
 297  4177.197
 298  4377.351
 299  4631.314
 300  5395.528
 301  5791.154
 302  5575.33
 303  5621.03
 304  4901.157
 305  3941.103
 306  3574.683
 307  3838.405
 308  4326.146
 309  4906.832
 310  5817.911
 311  5720.986
 312  4659.414
 313  4168.917
 314  4008.716
 315  3941.521
 316  4725.101
 317  5056.169
 318  5196.437
 319  5454.043
 320  4789.048
 321  4209.972
 322  4098.069
 323  4405.753
 324  4361.062
 325  5034.551
 326  5248.336
 327  5181.303
 328  5139.862
 329  5179.164
 330  5071.802
 331  4949.22
 332  5156.865
 333  5257.265
 334  5539.331
 335  5298.051
 336  5163.55
 337  4851.08
 338  4704.766
 339  5018.577
 340  5295.535
 341  4700.888
 342  5284.825
 343  6079.023
 344  5401.119
 345  4680.951
 346  4924.069
 347  5203.754
 348  5135.627
 349  5964.768
 350  6296.866
 351  5602.344
 352  5338.607
 353  5120.164
 354  4626.478
 355  4267.997
 356  5471.849
 357  5854.497
 358  5703.793
 359  5982.339
 360  5715.326
 361  5015.634
 362  4330.837
 363  4188.429
 364  4721.973
 365  5427.583
 366  5967.96
 367  6115.236
 368  6298.393
 369  5808.425
 370  4969.012
 371  3956.294
 372  4270.993
 373  4804.955
 374  5708.271
 375  6707.853
 376  7017.372
 377  6206.789
 378  5286.52
 379  4875.873
 380  4484.384
 381  4621.261
 382  5523.76
 383  6326.536
 384  6571.012
 385  6535.635
 386  5401.626
 387  4266.998
 388  4112.072
 389  4175.861
 390  4746.118
 391  5298.13
 392  6192.832
 393  6300.863
 394  5650.826
 395  4917.839
 396  4737.471
 397  4795.116
 398  5069.157
 399  5982.007
 400  5685.429
 401  6221.375
 402  6267.411
 403  5607
 404  4962.772
 405  4541.029
 406  5227.15
 407  4944.962
 408  5302.293
 409  5894.22
 410  5978.601
 411  5627.71
 412  5119.841
 413  5067.965
 414  5069.501
 415  5336.588
 416  5590.679
 417  5908.9
 418  5874.877
 419  5243.799
 420  4454.075
 421  4623.528
 422  5371.111
 423  5660.754
 424  5435.149
 425  5739.318
 426  5571.473
 427  5020.498
 428  4940.24
 429  5230.105
 430  4719.214
 431  5513.112
 432  6263.2
 433  6271.268
 434  5590.897
 435  5109.462
 436  4297.158
 437  4094.227
 438  4481.972
 439  5281.744
 440  5277.917
 441  5456.634
 442  5602.135
 443  5096.149
 444  4875.726
 445  4691.727
 446  4853.175
 447  5013.042
 448  6014.09
 449  5978.964
 450  5920.222
 451  5499.079
 452  4950.406
 453  3899.113
 454  3529.298
 455  4251.755
 456  4766.492
 457  5565.67
 458  6371.095
 459  6474.743
 460  5309.011
 461  4621.278
 462  4246.704
 463  4322.14
 464  4888.184
 465  5705.324
 466  6483.254
 467  6741.3
 468  6039.269
 469  5192.827
 470  3752.688
 471  3883.38
 472  4306.248
 473  4810.544
 474  5628.687
 475  6379.951
 476  5719.234
 477  5014.374
 478  4893.464
 479  4646.483
 480  4705.278
 481  4959.216
 482  5672.791
 483  5851.159
 484  5678.205
 485  5632.628
 486  4886.186
 487  4670.564
 488  4583.459
 489  4403.514
 490  4925.38
 491  5589.873
 492  6267.595
 493  6092.985
 494  5422.483
 495  4608.946
 496  4626.843
 497  4984.042
 498  5466.3
 499  5917.912
 500  5981.885
 501  6302.13
 502  5762.851
 503  5941.323
 504  6467.945
 505  7097.701
 506  6850.835
 507  6486.298
 508  6158.116
 509  5182.363
 510  4589.63
 511  4425.211
