# Input file       =  1210408190.122714_cleaned.dat
# Candidate        =  PSR_0332+5434
# Telescope        =  AR
# Epoch_topo       =  58253.354272253637
# Epoch_bary       =  N/A
# T_sample         =  0.002
# Data Folded      =  7340032
# Data Avg         =  0.135533390949214
# Data StdDev      =  4.54440841776603 
# Profile Bins     =  512
# Profile Avg      =  1942.6376765139  
# Profile StdDev   =  544.115818395262 
# Reduced chi-sqr  =  0.972
# Prob(Noise)      <  0.666   (~0.0 sigma)
# P_topo (ms)      =  714.533246923957  +/- 0.00057
# P'_topo (s/s)    =  -0                +/- 3.01e-10
# P''_topo (s/s^2) =  0                 +/- 1.33e-13
# P_bary (ms)      =  N/A
# P'_bary (s/s)    =  N/A
# P''_bary (s/s^2) =  N/A
# P_orb (s)        =  N/A
# asin(i)/c (s)    =  N/A
# eccentricity     =  N/A
# w (rad)          =  N/A
# T_peri           =  N/A
######################################################
   0  1695.26
   1  1842.233
   2  2232.057
   3  2335.519
   4  2209.842
   5  2248.29
   6  2286.576
   7  1948.177
   8  1895.189
   9  2264.998
  10  2242.223
  11  2170.475
  12  2002.926
  13  1988.699
  14  1777.237
  15  2042.504
  16  2370.913
  17  2267.372
  18  2658.939
  19  2633.515
  20  2353.097
  21  2206.357
  22  2285.979
  23  2437.532
  24  2102.984
  25  2109.321
  26  2367.054
  27  2110.216
  28  2309.753
  29  2547.599
  30  2600.509
  31  3045.71
  32  2960.414
  33  3894.598
  34  4512.879
  35  4510.444
  36  4296.179
  37  3945.12
  38  3240.313
  39  2796.25
  40  2525.882
  41  2248.268
  42  2386.531
  43  2594.777
  44  2611.531
  45  2711.851
  46  2704.143
  47  2508.021
  48  2649.97
  49  2993.888
  50  2701.668
  51  2195.962
  52  2048.113
  53  2094.083
  54  2155.819
  55  2124.036
  56  2136.448
  57  1962.496
  58  2033.619
  59  1856.097
  60  1709.013
  61  1886.826
  62  1902.009
  63  2080.752
  64  1925.767
  65  1958.252
  66  2095.068
  67  1911.341
  68  2301.31
  69  2148.187
  70  1906.591
  71  2105.022
  72  2065.512
  73  1906.769
  74  2107.9
  75  2149.659
  76  1618.405
  77  1546.815
  78  2065.758
  79  2189.559
  80  2183.175
  81  2199.916
  82  2282.213
  83  1673.491
  84  1556.067
  85  1863.232
  86  2069.063
  87  1994.903
  88  1961.53
  89  2277.82
  90  2402.465
  91  2227.744
  92  2331.914
  93  2280.342
  94  2004.559
  95  2162.621
  96  1939.223
  97  1869.546
  98  1536.901
  99  1479.294
 100  1738.405
 101  1586.286
 102  1553.16
 103  1491.741
 104  2077.261
 105  2370.843
 106  2071.438
 107  1821.99
 108  2166.029
 109  2364.626
 110  2073.677
 111  2175.54
 112  2383.236
 113  2375.525
 114  2303.229
 115  2160.903
 116  1699.973
 117  1756.433
 118  2014.635
 119  1937.297
 120  1833.091
 121  1848.788
 122  1865.247
 123  1839.989
 124  1864.056
 125  1694.831
 126  2008.372
 127  1884.95
 128  1471.057
 129  1597.908
 130  1692.387
 131  2019.389
 132  2156.936
 133  2169.652
 134  1912.373
 135  2081.585
 136  1887.963
 137  1887.516
 138  1962.05
 139  2055.556
 140  1925.891
 141  1913.985
 142  2001.054
 143  1816.734
 144  2288.572
 145  2032.643
 146  1686.615
 147  1856.088
 148  1991.802
 149  2113.762
 150  2051.424
 151  1940.77
 152  1821.04
 153  1677.26
 154  1814.794
 155  1890.441
 156  1850.028
 157  1596.672
 158  1407.582
 159  1328.958
 160  1369.034
 161  1671.678
 162  1523.574
 163  1559.802
 164  1757.529
 165  1923.339
 166  1950.588
 167  1776.002
 168  1619.349
 169  1874.403
 170  1975.833
 171  2098.031
 172  2068.552
 173  1707.475
 174  1599.956
 175  2091.241
 176  2375.219
 177  2061.179
 178  1979.893
 179  1895.719
 180  1944.49
 181  1552.754
 182  1794.679
 183  2307.778
 184  1948.991
 185  1898.912
 186  1891.315
 187  1800.186
 188  2039.577
 189  2096.548
 190  1682.833
 191  1695.837
 192  1773.424
 193  1934.685
 194  1907.951
 195  2132.961
 196  2056.169
 197  1894.902
 198  1973.209
 199  1928.183
 200  2408.326
 201  2182.412
 202  1968.274
 203  1598.973
 204  1405.879
 205  1562.573
 206  1466.5
 207  1958.607
 208  2004.239
 209  1863.942
 210  1822.914
 211  2154.328
 212  2070.509
 213  1745.475
 214  2217.944
 215  2344.039
 216  2299.266
 217  2051.867
 218  1819.909
 219  1899.905
 220  2145.347
 221  2059.597
 222  2295.393
 223  2246.251
 224  1901.51
 225  1722.8
 226  1999.093
 227  2294.073
 228  2310.823
 229  1845.24
 230  2069.875
 231  2068.788
 232  2319.348
 233  2284.367
 234  2208.362
 235  1904.099
 236  1791.014
 237  1644.701
 238  1715.28
 239  1906.36
 240  1895.427
 241  1788.022
 242  1686.637
 243  1702.698
 244  1913.638
 245  1590.531
 246  1442.804
 247  1663.074
 248  1782.573
 249  1891.871
 250  1698.505
 251  1934.426
 252  1777.445
 253  1430.967
 254  1743.128
 255  1627.401
 256  1680.703
 257  1722.609
 258  1659.164
 259  1489.845
 260  1825.825
 261  1964.927
 262  1834.242
 263  1710.527
 264  1663.617
 265  1645.535
 266  1673.963
 267  1568.828
 268  1682.099
 269  1824.844
 270  1685.981
 271  1737.307
 272  1685.193
 273  1377.721
 274  1651.436
 275  1817.317
 276  1593.736
 277  1574.582
 278  1609.436
 279  1754.307
 280  1309.886
 281  1180.209
 282  1512.072
 283  1819.737
 284  1949.221
 285  1867.172
 286  1943.879
 287  1656.458
 288  1393.84
 289  1437.965
 290  2076.64
 291  1978.548
 292  1748.776
 293  1737.767
 294  1644.732
 295  1612.753
 296  1536.725
 297  1586.333
 298  1498.273
 299  1759.651
 300  1686.44
 301  1509.784
 302  1622.129
 303  1497.203
 304  1718.894
 305  1906.333
 306  1621.465
 307  1783.857
 308  1798.724
 309  1455.459
 310  1306.097
 311  1284.457
 312  1090.42
 313  1582.54
 314  1838.286
 315  1775.68
 316  1768.788
 317  1759.473
 318  1936.536
 319  1832.384
 320  1871.082
 321  2235.033
 322  2159.584
 323  1898.058
 324  1654.635
 325  1745.072
 326  1651.422
 327  1478.627
 328  1556.32
 329  1791.178
 330  1391.216
 331  1378.726
 332  1702.268
 333  1516.833
 334  1530.428
 335  1672.136
 336  1944.057
 337  1935.603
 338  1566.21
 339  1387.68
 340  1341.545
 341  1459.773
 342  1633.61
 343  1361.513
 344  1494.411
 345  1951.511
 346  2146.252
 347  1752.704
 348  1614.82
 349  1942.641
 350  1806.409
 351  1844.979
 352  2119.114
 353  2032.998
 354  1945.604
 355  1681.291
 356  1719.495
 357  1719.087
 358  1660.521
 359  2216.906
 360  2028.064
 361  1929.047
 362  1827.825
 363  1783.559
 364  1988.683
 365  2429.456
 366  2002.575
 367  1959.336
 368  1993.159
 369  2158.258
 370  2197.348
 371  2127.11
 372  1918.216
 373  1790.397
 374  1881.892
 375  1851.405
 376  1956.491
 377  2244.943
 378  1959.545
 379  1751.352
 380  1959.077
 381  1952.385
 382  1824.687
 383  2124.129
 384  1902.832
 385  2087.245
 386  2494.787
 387  2549.075
 388  2711.877
 389  2625.647
 390  2657.934
 391  2227.633
 392  2274.586
 393  2358.301
 394  2323.383
 395  2343.531
 396  2240.263
 397  2469.005
 398  2526.724
 399  2338.907
 400  2017.935
 401  1906.618
 402  1751.483
 403  2010.788
 404  2147.448
 405  1739.249
 406  1590.802
 407  2016.968
 408  2016.124
 409  2087.938
 410  2160.61
 411  1710.405
 412  2122.514
 413  2164.965
 414  2097.866
 415  2324.01
 416  1980.986
 417  1998.604
 418  2110.945
 419  1758.585
 420  1690.643
 421  1619.518
 422  1785.556
 423  1672.441
 424  1815.189
 425  1844.403
 426  2145.21
 427  2188.348
 428  1894.699
 429  1997.985
 430  2257.337
 431  2272.923
 432  2134.748
 433  2202.337
 434  2072.971
 435  2213.324
 436  1769.76
 437  1618.305
 438  1613.942
 439  2099.797
 440  2572.214
 441  2036.669
 442  2001.458
 443  1525.438
 444  1772.883
 445  1596.53
 446  1769.525
 447  1685.46
 448  1548.514
 449  1612.563
 450  1621.228
 451  1786.242
 452  1748.921
 453  1866.45
 454  1939.93
 455  1969.658
 456  1699.759
 457  1758.374
 458  1350.618
 459  1475.719
 460  1252.58
 461  1297.622
 462  1334.913
 463  1512.703
 464  1447.752
 465  1098.059
 466  1144.086
 467  1368.505
 468  1335.783
 469  1332.296
 470  1370.267
 471  1632.969
 472  1713.156
 473  1880.011
 474  1977.437
 475  2037.801
 476  2062.282
 477  1644.749
 478  1678.063
 479  2000.697
 480  2238.233
 481  2080.32
 482  1797.187
 483  1602.197
 484  1733.385
 485  1556.866
 486  1638.776
 487  1998.35
 488  2220.887
 489  1945.027
 490  2206.439
 491  2014.327
 492  1696.54
 493  1960.348
 494  1964.706
 495  2119.576
 496  2038.278
 497  2295.245
 498  1799.328
 499  1702.483
 500  1415.241
 501  1685.587
 502  1848.12
 503  2002.905
 504  1843.823
 505  1897.377
 506  2143.697
 507  1954.015
 508  2173.003
 509  2075.124
 510  2091.075
 511  2058.347
