# Input file       =  1210494378.115824_cleaned.dat
# Candidate        =  PSR_0332+5434
# Telescope        =  AR
# Epoch_topo       =  58254.351818470182
# Epoch_bary       =  N/A
# T_sample         =  0.002
# Data Folded      =  7340032
# Data Avg         =  0.0978668060010285
# Data StdDev      =  4.4116441400092  
# Profile Bins     =  1024
# Profile Avg      =  701.552475008744 
# Profile StdDev   =  373.507624556152 
# Reduced chi-sqr  =  1.137
# Prob(Noise)      <  0.00148   (~3.0 sigma)
# P_topo (ms)      =  714.532273123429  +/- 0.000877
# P'_topo (s/s)    =  -0                +/- 4.63e-10
# P''_topo (s/s^2) =  0                 +/- 2.04e-13
# P_bary (ms)      =  N/A
# P'_bary (s/s)    =  N/A
# P''_bary (s/s^2) =  N/A
# P_orb (s)        =  N/A
# asin(i)/c (s)    =  N/A
# eccentricity     =  N/A
# w (rad)          =  N/A
# T_peri           =  N/A
######################################################
   0  599.1766
   1  771.6083
   2  808.8649
   3  749.8513
   4  663.9312
   5  720.7497
   6  867.0513
   7  723.9828
   8  732.1144
   9  639.4489
  10  698.9902
  11  626.0833
  12  673.6983
  13  715.3481
  14  858.22
  15  871.0317
  16  862.1517
  17  804.5895
  18  888.5101
  19  878.5734
  20  842.7977
  21  874.2458
  22  777.842
  23  806.5292
  24  732.8867
  25  843.7062
  26  901.476
  27  846.3676
  28  802.1415
  29  675.7631
  30  704.9218
  31  657.7674
  32  676.8351
  33  748.5738
  34  777.9368
  35  733.7448
  36  708.4108
  37  689.4883
  38  712.1119
  39  752.9274
  40  928.635
  41  1029.106
  42  916.3109
  43  960.601
  44  907.8907
  45  941.4526
  46  813.3882
  47  891.0405
  48  957.8962
  49  1000.64
  50  923.0161
  51  815.3986
  52  739.3742
  53  633.4519
  54  677.0437
  55  814.1506
  56  928.7735
  57  863.1377
  58  807.7232
  59  675.7299
  60  733.5549
  61  751.5284
  62  801.2369
  63  854.5704
  64  824.2769
  65  900.1171
  66  811.5577
  67  918.5374
  68  976.3611
  69  969.1171
  70  928.0811
  71  754.4569
  72  830.2307
  73  865.4149
  74  943.1531
  75  874.0461
  76  995.0574
  77  1100.745
  78  1100.387
  79  1008.256
  80  943.2001
  81  994.8208
  82  1080.471
  83  1108.229
  84  996.3917
  85  916.8248
  86  965.1868
  87  1040.446
  88  976.86
  89  893.1477
  90  904.9054
  91  862.8316
  92  814.5233
  93  869.5804
  94  902.293
  95  979.025
  96  911.002
  97  1006.658
  98  1028.931
  99  1083.246
 100  1015.148
 101  1046.868
 102  1086.436
 103  1051.989
 104  975.4029
 105  944.1099
 106  927.5856
 107  1008.47
 108  1027.475
 109  1177.723
 110  1085.113
 111  1121.172
 112  1059.715
 113  1132.671
 114  1205.698
 115  1056.878
 116  1045.828
 117  981.807
 118  1037.455
 119  954.0822
 120  870.7269
 121  906.0949
 122  865.7036
 123  762.37
 124  705.1433
 125  718.0415
 126  857.2751
 127  825.6044
 128  917.2484
 129  915.6395
 130  846.3969
 131  832.2632
 132  872.8556
 133  854.8067
 134  848.8822
 135  812.2985
 136  907.4876
 137  935.8856
 138  1000.332
 139  979.4321
 140  792.972
 141  772.9151
 142  716.431
 143  852.5574
 144  804.8026
 145  844.9205
 146  912.1821
 147  855.2063
 148  834.9707
 149  745.1738
 150  829.7042
 151  864.2357
 152  741.1115
 153  825.4553
 154  781.1173
 155  853.912
 156  726.7463
 157  707.5929
 158  641.7918
 159  671.4857
 160  713.9542
 161  887.9872
 162  842.4735
 163  801.7307
 164  722.285
 165  813.8948
 166  752.2988
 167  622.2029
 168  513.1683
 169  470.2123
 170  612.5683
 171  706.4113
 172  803.2684
 173  769.6357
 174  689.9604
 175  798.3131
 176  892.6883
 177  965.1679
 178  750.0446
 179  604.4713
 180  549.5856
 181  623.3536
 182  679.731
 183  743.8389
 184  685.1173
 185  638.8028
 186  561.3038
 187  726.5701
 188  811.0325
 189  769.2222
 190  696.3391
 191  585.0646
 192  598.6235
 193  540.876
 194  494.1868
 195  553.2197
 196  604.976
 197  723.028
 198  636.2419
 199  670.7235
 200  577.3711
 201  562.7874
 202  607.5305
 203  526.0932
 204  507.1999
 205  422.6569
 206  423.1779
 207  444.3639
 208  445.9763
 209  492.9631
 210  398.6209
 211  408.347
 212  329.8459
 213  195.4927
 214  135.772
 215  178.5899
 216  166.7655
 217  153.957
 218  86.52338
 219  178.6775
 220  195.6443
 221  346.6696
 222  353.6969
 223  445.8506
 224  434.7378
 225  399.2334
 226  366.5437
 227  446.7148
 228  512.3198
 229  568.7212
 230  463.5709
 231  439.1567
 232  426.4905
 233  444.5116
 234  451.6488
 235  388.6837
 236  518.7724
 237  541.5406
 238  546.7259
 239  433.8429
 240  395.7548
 241  447.485
 242  412.2942
 243  381.7278
 244  245.6117
 245  202.8297
 246  232.536
 247  319.9414
 248  381.7556
 249  374.773
 250  269.1334
 251  274.2022
 252  173.3239
 253  331.8021
 254  347.6024
 255  290.0294
 256  271.6195
 257  232.989
 258  484.4487
 259  658.4647
 260  685.0686
 261  592.7263
 262  464.6423
 263  546.2811
 264  577.9233
 265  566.3791
 266  583.3994
 267  584.7612
 268  651.0621
 269  591.4921
 270  544.7784
 271  425.8554
 272  415.0829
 273  497.1212
 274  503.3129
 275  456.7238
 276  349.5304
 277  275.3174
 278  280.8473
 279  222.6318
 280  315.0696
 281  334.6403
 282  378.7424
 283  353.7699
 284  340.9556
 285  450.4547
 286  562.2941
 287  621.6913
 288  593.4034
 289  619.2388
 290  646.5106
 291  501.1416
 292  314.509
 293  225.8846
 294  353.9827
 295  503.8489
 296  506.2863
 297  489.0907
 298  381.3374
 299  418.7295
 300  399.6388
 301  425.2795
 302  441.3301
 303  449.4394
 304  387.1174
 305  539.4401
 306  531.8967
 307  523.3092
 308  355.149
 309  266.7606
 310  300.8485
 311  356.4185
 312  461.6147
 313  542.2946
 314  528.5578
 315  598.3328
 316  512.1633
 317  493.7362
 318  493.3824
 319  520.4441
 320  532.5418
 321  543.5312
 322  557.4877
 323  483.2004
 324  468.4344
 325  502.6567
 326  651.9537
 327  737.3242
 328  690.2427
 329  711.4984
 330  630.439
 331  508.5229
 332  505.0712
 333  530.303
 334  615.4792
 335  540.8296
 336  441.6842
 337  480.5572
 338  437.5923
 339  561.0899
 340  516.9669
 341  581.8322
 342  628.3098
 343  593.0428
 344  603.5308
 345  482.3347
 346  517.2214
 347  558.2476
 348  642.0836
 349  730.121
 350  590.3633
 351  485.862
 352  354.2541
 353  367.5423
 354  441.9573
 355  449.1554
 356  505.1025
 357  535.4979
 358  601.506
 359  628.0262
 360  533.8435
 361  571.8707
 362  509.2206
 363  592.0007
 364  543.8591
 365  643.6078
 366  568.2144
 367  551.2829
 368  472.2952
 369  336.5215
 370  346.9173
 371  536.1036
 372  727.6377
 373  778.6016
 374  717.7692
 375  660.6966
 376  618.192
 377  553.7852
 378  508.3755
 379  432.2107
 380  403.6702
 381  517.9786
 382  463.3494
 383  508.7851
 384  443.8251
 385  473.9271
 386  475.6872
 387  423.6177
 388  352.0983
 389  311.8616
 390  362.1013
 391  493.1923
 392  495.1736
 393  539.3874
 394  531.2053
 395  651.791
 396  606.6303
 397  472.4102
 398  452.7694
 399  370.4859
 400  489.2626
 401  420.5707
 402  560.1125
 403  633.0511
 404  676.3998
 405  632.3088
 406  588.9036
 407  650.5474
 408  605.0716
 409  491.1569
 410  390.4211
 411  430.9071
 412  366.2238
 413  451.4731
 414  486.5279
 415  598.8442
 416  575.7924
 417  607.4564
 418  610.3997
 419  466.8628
 420  416.1537
 421  412.0107
 422  426.4707
 423  457.4431
 424  379.6386
 425  534.0669
 426  587.2612
 427  691.3724
 428  702.0225
 429  658.7814
 430  646.1469
 431  652.0234
 432  679.9073
 433  766.5566
 434  694.85
 435  690.5775
 436  584.8481
 437  686.7581
 438  659.6967
 439  641.3003
 440  624.6821
 441  570.8965
 442  592.0807
 443  599.1181
 444  677.8572
 445  745.633
 446  636.765
 447  651.4833
 448  644.9023
 449  824.8995
 450  795.5552
 451  771.4618
 452  774.142
 453  723.6099
 454  693.1517
 455  625.074
 456  628.2216
 457  603.5333
 458  575.0087
 459  687.0447
 460  671.9108
 461  710.7161
 462  664.0856
 463  689.8527
 464  762.4899
 465  755.041
 466  730.909
 467  699.8315
 468  727.9188
 469  798.7975
 470  736.5028
 471  703.6884
 472  654.7214
 473  670.8167
 474  672.1466
 475  729.8177
 476  819.247
 477  829.9026
 478  834.9124
 479  865.9388
 480  758.6755
 481  731.7623
 482  888.213
 483  955.1752
 484  977.0963
 485  798.5135
 486  746.0963
 487  694.1549
 488  749.6347
 489  894.3336
 490  965.9944
 491  940.1226
 492  867.3026
 493  893.8236
 494  932.83
 495  909.7108
 496  966.6829
 497  969.3196
 498  930.6914
 499  736.77
 500  638.9107
 501  674.9745
 502  738.376
 503  818.4523
 504  722.3069
 505  626.3925
 506  694.9204
 507  735.499
 508  736.2288
 509  656.0434
 510  718.9402
 511  739.4116
 512  669.5946
 513  729.9985
 514  666.7434
 515  748.9451
 516  623.8956
 517  638.5712
 518  647.5325
 519  687.3676
 520  836.6871
 521  862.7212
 522  806.9433
 523  751.8876
 524  640.3521
 525  612.8092
 526  520.1078
 527  657.5643
 528  649.9214
 529  628.7032
 530  559.0306
 531  601.995
 532  501.784
 533  568.5966
 534  593.0285
 535  686.1129
 536  592.0607
 537  641.8467
 538  667.4867
 539  538.4637
 540  601.5296
 541  470.7286
 542  675.4329
 543  679.9676
 544  786.2575
 545  795.4303
 546  754.5323
 547  703.6805
 548  660.4744
 549  641.488
 550  597.8043
 551  530.1001
 552  507.3148
 553  531.2852
 554  588.991
 555  702.7609
 556  784.5489
 557  846.173
 558  861.5161
 559  774.8305
 560  734.2267
 561  681.5198
 562  807.0103
 563  801.2859
 564  746.9851
 565  717.9124
 566  748.3842
 567  714.6334
 568  624.0828
 569  553.2324
 570  621.0164
 571  565.3813
 572  588.0761
 573  599.4579
 574  641.0679
 575  657.5869
 576  677.0179
 577  739.7033
 578  748.1637
 579  760.0551
 580  785.4283
 581  800.2267
 582  812.6946
 583  718.2786
 584  689.4337
 585  676.5065
 586  728.4799
 587  836.5965
 588  770.0778
 589  935.1844
 590  964.8077
 591  1019.809
 592  1071.663
 593  1143.601
 594  1409.795
 595  1535.092
 596  1703.112
 597  1782.114
 598  1953.939
 599  2011.608
 600  1953.659
 601  1988.108
 602  1919.906
 603  1748.427
 604  1501.372
 605  1332.363
 606  1141.381
 607  956.0093
 608  803.72
 609  709.6434
 610  837.2227
 611  957.8658
 612  993.0739
 613  803.473
 614  688.7774
 615  543.3698
 616  635.1226
 617  661.2145
 618  698.0693
 619  610.1254
 620  629.9521
 621  653.1387
 622  667.5009
 623  632.7042
 624  684.4514
 625  702.296
 626  768.4363
 627  832.5009
 628  873.758
 629  846.7225
 630  733.2347
 631  775.9457
 632  749.058
 633  764.9376
 634  672.4182
 635  584.1172
 636  603.54
 637  514.862
 638  553.7421
 639  458.4637
 640  499.3921
 641  545.5533
 642  603.2861
 643  641.5222
 644  628.7804
 645  647.2048
 646  497.232
 647  373.4424
 648  416.9519
 649  517.1198
 650  612.4419
 651  656.4318
 652  730.1437
 653  802.0299
 654  684.5582
 655  647.3667
 656  576.0433
 657  547.3024
 658  476.3024
 659  402.7304
 660  502.3867
 661  522.8077
 662  522.3864
 663  514.1089
 664  550.5649
 665  586.4994
 666  523.7524
 667  489.3639
 668  561.5421
 669  632.1511
 670  651.4811
 671  572.9077
 672  514.2712
 673  458.4897
 674  335.6217
 675  281.1434
 676  138.6938
 677  133.5236
 678  248.6776
 679  364.7672
 680  467.8411
 681  523.1486
 682  486.0302
 683  463.2275
 684  468.9031
 685  569.6805
 686  584.804
 687  514.2742
 688  373.8627
 689  316.3185
 690  339.6514
 691  388.6924
 692  434.3944
 693  456.7816
 694  461.6505
 695  617.7595
 696  656.1566
 697  635.8234
 698  526.1414
 699  533.428
 700  519.8693
 701  444.5725
 702  365.9697
 703  356.0512
 704  420.7281
 705  501.4861
 706  542.7287
 707  546.6811
 708  393.722
 709  446.5395
 710  412.7072
 711  597.3209
 712  593.5404
 713  607.3995
 714  752.3708
 715  791.6783
 716  824.257
 717  759.444
 718  662.0051
 719  731.5284
 720  676.0956
 721  716.3971
 722  572.9417
 723  508.8536
 724  474.1165
 725  481.313
 726  677.0137
 727  743.9049
 728  750.3632
 729  715.0065
 730  684.3262
 731  753.3544
 732  702.6757
 733  758.5828
 734  697.4447
 735  801.493
 736  824.1172
 737  741.303
 738  607.9425
 739  493.5352
 740  575.0107
 741  569.6981
 742  471.0123
 743  493.4911
 744  527.2357
 745  639.0792
 746  733.7294
 747  738.4039
 748  814.5801
 749  776.7005
 750  785.5989
 751  660.7596
 752  546.0838
 753  602.0563
 754  700.7621
 755  811.9448
 756  908.5976
 757  787.2224
 758  777.0945
 759  684.9885
 760  923.4405
 761  1009.77
 762  1043.632
 763  996.1969
 764  899.4344
 765  874.1128
 766  783.7087
 767  664.8847
 768  664.3627
 769  658.5779
 770  789.5263
 771  762.6862
 772  780.0374
 773  701.4337
 774  643.5048
 775  681.2444
 776  784.3275
 777  943.5103
 778  956.8566
 779  919.9318
 780  881.8863
 781  850.8044
 782  909.6594
 783  908.0239
 784  852.6581
 785  877.9662
 786  908.2867
 787  933.0289
 788  938.0179
 789  897.2823
 790  878.4275
 791  820.9716
 792  878.848
 793  992.0626
 794  952.3047
 795  979.298
 796  868.0519
 797  994.1722
 798  925.7471
 799  916.3109
 800  905.1583
 801  833.0606
 802  842.8171
 803  860.5929
 804  871.747
 805  925.4224
 806  829.7764
 807  946.9882
 808  824.3994
 809  825.9954
 810  750.7821
 811  751.3919
 812  822.7166
 813  804.8993
 814  975.0612
 815  907.8404
 816  767.6766
 817  695.563
 818  571.626
 819  621.821
 820  553.4951
 821  643.2853
 822  839.2591
 823  691.8449
 824  583.1711
 825  443.9052
 826  606.4301
 827  663.4719
 828  683.9189
 829  714.5253
 830  677.443
 831  696.649
 832  692.181
 833  702.2467
 834  818.4013
 835  721.545
 836  623.9772
 837  498.6776
 838  573.2469
 839  675.2283
 840  670.2531
 841  785.3705
 842  843.2151
 843  881.2174
 844  901.9924
 845  783.2438
 846  853.8672
 847  796.9668
 848  905.6252
 849  936.8441
 850  991.4901
 851  954.6605
 852  876.4136
 853  802.6437
 854  894.5746
 855  846.8729
 856  930.1228
 857  884.5277
 858  909.5471
 859  823.1111
 860  793.5529
 861  920.3286
 862  887.8899
 863  959.7205
 864  973.4052
 865  997.5057
 866  911.6791
 867  849.3087
 868  1000.169
 869  1071.4
 870  1074.73
 871  1001.577
 872  837.416
 873  833.8696
 874  873.7008
 875  830.9176
 876  858.4929
 877  814.5214
 878  923.0084
 879  837.9688
 880  797.02
 881  802.4449
 882  779.0498
 883  831.0168
 884  809.6581
 885  779.8601
 886  687.4986
 887  714.2481
 888  797.2112
 889  822.4283
 890  857.1407
 891  909.2249
 892  882.4084
 893  882.8053
 894  841.2462
 895  839.7917
 896  846.9726
 897  947.384
 898  1034.88
 899  945.5869
 900  872.3991
 901  817.2968
 902  702.6208
 903  647.5416
 904  763.7753
 905  919.6463
 906  960.8312
 907  807.8064
 908  731.4299
 909  677.7712
 910  708.1039
 911  776.767
 912  928.5905
 913  992.5165
 914  986.0626
 915  918.906
 916  880.2449
 917  934.6604
 918  827.2584
 919  828.4633
 920  793.938
 921  782.6224
 922  780.502
 923  838.329
 924  876.0544
 925  823.918
 926  782.5886
 927  770.0851
 928  755.0626
 929  631.9945
 930  759.1901
 931  738.0415
 932  840.0681
 933  765.2316
 934  784.4276
 935  682.4791
 936  693.1804
 937  704.1266
 938  794.8435
 939  872.7632
 940  822.2505
 941  790.1682
 942  862.3
 943  867.5766
 944  794.8716
 945  794.9393
 946  854.3335
 947  875.1407
 948  772.8523
 949  778.4483
 950  696.6988
 951  685.8558
 952  681.924
 953  838.2162
 954  903.4341
 955  835.9315
 956  748.8256
 957  770.4704
 958  786.2413
 959  855.8997
 960  797.0424
 961  799.4031
 962  722.707
 963  610.3295
 964  613.4675
 965  646.54
 966  787.7772
 967  932.0237
 968  944.3224
 969  815.5269
 970  634.6712
 971  722.439
 972  706.5131
 973  728.9604
 974  712.5798
 975  796.6998
 976  786.8898
 977  732.5074
 978  687.6889
 979  798.0978
 980  850.4718
 981  932.6997
 982  885.8718
 983  819.4721
 984  730.6797
 985  633.8274
 986  722.0109
 987  676.3196
 988  687.5196
 989  711.6381
 990  775.0682
 991  835.5944
 992  693.1467
 993  758.4981
 994  662.8379
 995  590.8286
 996  589.6229
 997  663.4042
 998  774.8065
 999  666.279
1000  690.9017
1001  709.2938
1002  687.0096
1003  690.0247
1004  741.6691
1005  818.7805
1006  789.585
1007  734.5015
1008  764.7734
1009  727.2034
1010  690.6794
1011  718.4054
1012  665.9463
1013  698.5227
1014  584.6049
1015  611.4749
1016  626.4831
1017  624.7933
1018  745.3047
1019  631.3368
1020  650.9733
1021  505.6266
1022  575.1326
1023  547.5952
