# Input file       =  1210681615.114721_cleaned.dat
# Candidate        =  PSR_0332+5434
# Telescope        =  AR
# Epoch_topo       =  58256.518913364824
# Epoch_bary       =  N/A
# T_sample         =  0.002
# Data Folded      =  7340032
# Data Avg         =  0.27663097455661 
# Data StdDev      =  4.81883297712141 
# Profile Bins     =  1024
# Profile Avg      =  1982.88448867922 
# Profile StdDev   =  407.981877344648 
# Reduced chi-sqr  =  0.766
# Prob(Noise)      <  1   (~0.0 sigma)
# P_topo (ms)      =  714.530483831504  +/- 0.000183
# P'_topo (s/s)    =  -0                +/- 9.65e-11
# P''_topo (s/s^2) =  0                 +/- 4.26e-14
# P_bary (ms)      =  N/A
# P'_bary (s/s)    =  N/A
# P''_bary (s/s^2) =  N/A
# P_orb (s)        =  N/A
# asin(i)/c (s)    =  N/A
# eccentricity     =  N/A
# w (rad)          =  N/A
# T_peri           =  N/A
######################################################
   0  1668.725
   1  1753.105
   2  1934.293
   3  2034.708
   4  1837.332
   5  1843.956
   6  2022.357
   7  2138.213
   8  1988.915
   9  1827.062
  10  1783.148
  11  1835.053
  12  1949.009
  13  1808.543
  14  1680.414
  15  1725.707
  16  1831.635
  17  1865.754
  18  1836.918
  19  1883.716
  20  1907.848
  21  1930.655
  22  1962.826
  23  2048.934
  24  2188.727
  25  2120.496
  26  2100.321
  27  1992.385
  28  2097.421
  29  2090.657
  30  1874.256
  31  1748.21
  32  1830.295
  33  1997.639
  34  2072.748
  35  2025.688
  36  1946.552
  37  1891.558
  38  2004.178
  39  2126.601
  40  2231.43
  41  2199.497
  42  2121.458
  43  1968.733
  44  1759.97
  45  1739.739
  46  1894.013
  47  2217.098
  48  2294.559
  49  2288.907
  50  2175.508
  51  2015.96
  52  2039.165
  53  1986.896
  54  2190.252
  55  2286.261
  56  2421.229
  57  2346.36
  58  2140.887
  59  1949.465
  60  1843.341
  61  1731.492
  62  1719.334
  63  1787.212
  64  1784.832
  65  1778.011
  66  1912.417
  67  2000.508
  68  1967.627
  69  1900.102
  70  1848.08
  71  1846.395
  72  1737.662
  73  1844.786
  74  1886.205
  75  1903.977
  76  1872.781
  77  1865.379
  78  1936.642
  79  1856.267
  80  1768.889
  81  1772.962
  82  1850.06
  83  1996.866
  84  2001.021
  85  2218.796
  86  2211.825
  87  2063.953
  88  1932.426
  89  2097.031
  90  2209.333
  91  2244.047
  92  2097.965
  93  2012.709
  94  1953.346
  95  1893.495
  96  1973.498
  97  2040.434
  98  2148.067
  99  2148.977
 100  2156.251
 101  2120.778
 102  2109.344
 103  2156.6
 104  2283.026
 105  2272.496
 106  2180.895
 107  2068.348
 108  2076.949
 109  1960.939
 110  1992.72
 111  1970.646
 112  2069.097
 113  2000.979
 114  2118.431
 115  2114.206
 116  2137.529
 117  2131.389
 118  2248.153
 119  2257.783
 120  2126.755
 121  2077.892
 122  2105.169
 123  2036.784
 124  2008.693
 125  1979.936
 126  2032.442
 127  2024.224
 128  2079.311
 129  2023.268
 130  1963.795
 131  1892.859
 132  2008.941
 133  2044.528
 134  2177.901
 135  2140.276
 136  2210.582
 137  2203.215
 138  2340.054
 139  2356.727
 140  2284.499
 141  2107.32
 142  2037.572
 143  2110.057
 144  2202.93
 145  2187.074
 146  2088.973
 147  2000.99
 148  2014.677
 149  2061.666
 150  2061.757
 151  2053.011
 152  1958
 153  1968.718
 154  1961.852
 155  2004.451
 156  2145.036
 157  2217.587
 158  2244.209
 159  2142.987
 160  2128.667
 161  2056.738
 162  1844.904
 163  1721.575
 164  1746.903
 165  1801.354
 166  1762.564
 167  1828.433
 168  1826.659
 169  1934.578
 170  1889.5
 171  2080.942
 172  2297.558
 173  2325.945
 174  2197.754
 175  2052.927
 176  2002.74
 177  1999.238
 178  1973.683
 179  1970.322
 180  1946.76
 181  1915.89
 182  1960.302
 183  2051.565
 184  2010.136
 185  1886.575
 186  2021.75
 187  2188.486
 188  2279.033
 189  2229.958
 190  2160.537
 191  2032.131
 192  1904.427
 193  1829.246
 194  1832.68
 195  1843.058
 196  1837.405
 197  1871.081
 198  1850.033
 199  1784.609
 200  1851.776
 201  1983.658
 202  2294.31
 203  2209.186
 204  2227.767
 205  2068.599
 206  2144.581
 207  2021.911
 208  1950.439
 209  2024.63
 210  1992.593
 211  1820.414
 212  1715.582
 213  1785.209
 214  1957.528
 215  2085.625
 216  2146.758
 217  2085.93
 218  1886.714
 219  1765.79
 220  1786.604
 221  1902
 222  1943.382
 223  2055.475
 224  2040.756
 225  2004.293
 226  1828.964
 227  1845.064
 228  1834.986
 229  1818.978
 230  1690.691
 231  1819.38
 232  1956.393
 233  1938.622
 234  1838.353
 235  1747.799
 236  1801.671
 237  1645.307
 238  1646.929
 239  1567.299
 240  1719.278
 241  1695.107
 242  1639.726
 243  1630.433
 244  1654.326
 245  1664.841
 246  1794.085
 247  1783.121
 248  1927.849
 249  1938.975
 250  1981.258
 251  1883.643
 252  1979.842
 253  2167.559
 254  2287.489
 255  2261.491
 256  2022.685
 257  1888.963
 258  1885.841
 259  1886.983
 260  2059.757
 261  2044.57
 262  2120.554
 263  1971.991
 264  2054.519
 265  2118.888
 266  2234.237
 267  2186.724
 268  2171.737
 269  1974.509
 270  2096.786
 271  2337.279
 272  2494.699
 273  2341.287
 274  2197.143
 275  2186.479
 276  2089.37
 277  2082.953
 278  1996.607
 279  2174.217
 280  2197.469
 281  2203.41
 282  1997.429
 283  1978.556
 284  2085.823
 285  2159.5
 286  2124.751
 287  2053.24
 288  1950.2
 289  1913.082
 290  1818.948
 291  1877.389
 292  1884.611
 293  1942.254
 294  2139.002
 295  2087.286
 296  1977.426
 297  1911.392
 298  1993.03
 299  2069.048
 300  2091.888
 301  1946.484
 302  2084.223
 303  2022.756
 304  2048.767
 305  1917.81
 306  2008.09
 307  2103.775
 308  2206.007
 309  2296.413
 310  2192.791
 311  2044.592
 312  1874.325
 313  1913.605
 314  1909.453
 315  1918.959
 316  1997.553
 317  2106.529
 318  2227.49
 319  2176.232
 320  2152.429
 321  2219.553
 322  2367.729
 323  2483.413
 324  2464.6
 325  2387.894
 326  2523.793
 327  2562.483
 328  2571.963
 329  2340.607
 330  2264.927
 331  2239.7
 332  2274.022
 333  2279.193
 334  2255.053
 335  2217.781
 336  2195.622
 337  2120.939
 338  2038.082
 339  2112.664
 340  2250.451
 341  2297.413
 342  2196.445
 343  2161.197
 344  2080.105
 345  2088.724
 346  1950.882
 347  1928.641
 348  1779.052
 349  1854.46
 350  2007.371
 351  2139.27
 352  2104.741
 353  1993.531
 354  1997.157
 355  2145.063
 356  2181.306
 357  2131.597
 358  2052.045
 359  2084.452
 360  2018.278
 361  1929.189
 362  1943.343
 363  1981.262
 364  2071.583
 365  2126.06
 366  2022.118
 367  1780.38
 368  1797.814
 369  1944.265
 370  2166.068
 371  2127.771
 372  1963.476
 373  1791.72
 374  1845.069
 375  2060.143
 376  2104.978
 377  2117.085
 378  1951.531
 379  1885.835
 380  1990.293
 381  2194.352
 382  2253.727
 383  2226.731
 384  2271.587
 385  2342.214
 386  2340.737
 387  2309.914
 388  2247.768
 389  2252.222
 390  2242.967
 391  2189.64
 392  2206.934
 393  2179.66
 394  2159.6
 395  2134.067
 396  2058.307
 397  2051.157
 398  1972.014
 399  2037.042
 400  2061.166
 401  2041.103
 402  2033.503
 403  2084.173
 404  2132.054
 405  2183.72
 406  2308.117
 407  2217.412
 408  2168.727
 409  2088.97
 410  2191.659
 411  2116.496
 412  1936.397
 413  1888.762
 414  1918.634
 415  1949.898
 416  1906.369
 417  1886.775
 418  1983.02
 419  2108.788
 420  2235.844
 421  2285.598
 422  2245.326
 423  2145.396
 424  2094.614
 425  2039.874
 426  1936.669
 427  2012.026
 428  2029.397
 429  2043.184
 430  2029.695
 431  2063.001
 432  2114.813
 433  2176.796
 434  2314.997
 435  2427.657
 436  2337.536
 437  2132.18
 438  2085.414
 439  2002.814
 440  1982.726
 441  1852.178
 442  1902.972
 443  1987.506
 444  1973.623
 445  2099.988
 446  2155.494
 447  2071.16
 448  2056.065
 449  2033.083
 450  2063.532
 451  2174.803
 452  2304.197
 453  2381.26
 454  2289.199
 455  2105.013
 456  2054.906
 457  2033.456
 458  1952.153
 459  1926.604
 460  1953.074
 461  2128.569
 462  2151.455
 463  2069.263
 464  1953.558
 465  1784.553
 466  1798.075
 467  1935.366
 468  2050.235
 469  2110.237
 470  2135.59
 471  2239.451
 472  2314.183
 473  2264.407
 474  2146.861
 475  2050.847
 476  2042.039
 477  2152.422
 478  2093.294
 479  1968.533
 480  1773.789
 481  1707.84
 482  1789.999
 483  1880.781
 484  1844.38
 485  1821.297
 486  1834.177
 487  1807.444
 488  1922.993
 489  1849.784
 490  1927.058
 491  1799.62
 492  1725.35
 493  1693.033
 494  1795.112
 495  1824.659
 496  1842.651
 497  1798.94
 498  1906.999
 499  1831.749
 500  1882.522
 501  1990.198
 502  2110.149
 503  2077.426
 504  2030.703
 505  2052.729
 506  2068.635
 507  1960.852
 508  1891.763
 509  1755.242
 510  1788.528
 511  1704.203
 512  1817.556
 513  1907.857
 514  1949.393
 515  1900.611
 516  1834.038
 517  1835.06
 518  1897.295
 519  1985.777
 520  2069.83
 521  2034.804
 522  1968.722
 523  1934.699
 524  1870.864
 525  1918.784
 526  1802.033
 527  1766.967
 528  1897.029
 529  1967.067
 530  2018.263
 531  1981.101
 532  1986.831
 533  1871.007
 534  1753.555
 535  1796.65
 536  1898.368
 537  1987.165
 538  1913.296
 539  1847.076
 540  1811.535
 541  1784.207
 542  1828.008
 543  1927.83
 544  1974.982
 545  2031.094
 546  2027.706
 547  2134.34
 548  2033.894
 549  2029.966
 550  1913.262
 551  1823.844
 552  1736.839
 553  1962.204
 554  2081.311
 555  2197.014
 556  2209.798
 557  2263.961
 558  2301.817
 559  2051.516
 560  1937.258
 561  1933.827
 562  1965.773
 563  1966.095
 564  2010.049
 565  2000.201
 566  2031.561
 567  2096.94
 568  2398.664
 569  2448.103
 570  2249.241
 571  1940.1
 572  1929.276
 573  2117.412
 574  2141.581
 575  2141.388
 576  2139.922
 577  2114.11
 578  1958.676
 579  1854.505
 580  1926.065
 581  1859.207
 582  1823.963
 583  1963.224
 584  2080.488
 585  2151.581
 586  2124.167
 587  2145.802
 588  2123.885
 589  2239.015
 590  2250.838
 591  2202.377
 592  2091.187
 593  2101.604
 594  2246.907
 595  2500.884
 596  2573.248
 597  2547.005
 598  2574.606
 599  2761.209
 600  2919.307
 601  2905.292
 602  2800.7
 603  2653.078
 604  2468.368
 605  2328.264
 606  2227.151
 607  2057.474
 608  1846.031
 609  1721.621
 610  1603.594
 611  1609.778
 612  1625.172
 613  1658.139
 614  1650.201
 615  1674.568
 616  1646.082
 617  1722.799
 618  1795.732
 619  1871.975
 620  1934.262
 621  1898.931
 622  1787.364
 623  1808.405
 624  1794.381
 625  1932.684
 626  1894.208
 627  1931.428
 628  2005.799
 629  2029.36
 630  2037.623
 631  1960.923
 632  1906.359
 633  2000.758
 634  2131.544
 635  2242.729
 636  2166.206
 637  2013.424
 638  1996.383
 639  2213.003
 640  2291.537
 641  2309.061
 642  2201.943
 643  2154.051
 644  1966.046
 645  2024.346
 646  2062.706
 647  2130.609
 648  2045.685
 649  2063.663
 650  2071.651
 651  2151.975
 652  2143.239
 653  2108.689
 654  1982.38
 655  1870.738
 656  1774.718
 657  1786.951
 658  1801.309
 659  1905.043
 660  1913.997
 661  1827.786
 662  1843.819
 663  1977.736
 664  2029.728
 665  1972.635
 666  1869.977
 667  1873.229
 668  1912.832
 669  1873.478
 670  1874.409
 671  1883.028
 672  1989.195
 673  2037.368
 674  2044.128
 675  2120.182
 676  2180.272
 677  2195.216
 678  2093.995
 679  2090.992
 680  2047.384
 681  2045.288
 682  2015.899
 683  2071.281
 684  2233.134
 685  2239.845
 686  2176.649
 687  2233.165
 688  2016.49
 689  1854.91
 690  1719.66
 691  1900.95
 692  1907.362
 693  2005.988
 694  2002.33
 695  1942.442
 696  1941.818
 697  1774.015
 698  1741.796
 699  1705.597
 700  1903.558
 701  1984.765
 702  2037.911
 703  2100.562
 704  2133.286
 705  2161.847
 706  2050.312
 707  1898.512
 708  1859.305
 709  1907.224
 710  1855.957
 711  1776.33
 712  1745.249
 713  1882.358
 714  1953.099
 715  1937.326
 716  1875.857
 717  1972.278
 718  2007.563
 719  2076.625
 720  1969.536
 721  1844.142
 722  1810.007
 723  1868.785
 724  1962.859
 725  2003.786
 726  1912.313
 727  1934.798
 728  1901.969
 729  2022.928
 730  1887.531
 731  1780.936
 732  1866.607
 733  2097.501
 734  2236.277
 735  1984.353
 736  1739.158
 737  1676.654
 738  1709.26
 739  1708.261
 740  1634.088
 741  1811.649
 742  1837.302
 743  1822.535
 744  1854.805
 745  1867.043
 746  1919.14
 747  2022.012
 748  2090.877
 749  2154.957
 750  1979.148
 751  1891.969
 752  1858.204
 753  1861.859
 754  1902.42
 755  1867.206
 756  1952.951
 757  1868.445
 758  2044.685
 759  1929.013
 760  1806.74
 761  1756.222
 762  1901.781
 763  2005.263
 764  1980.31
 765  2007.079
 766  1950.201
 767  1942.742
 768  1838.649
 769  1834.623
 770  1878.545
 771  1907.033
 772  1787.4
 773  1713.386
 774  1794.146
 775  1892.94
 776  1975.217
 777  1927.43
 778  1917.564
 779  1831.007
 780  1770.869
 781  1673.981
 782  1701.407
 783  1732.501
 784  1842.285
 785  1916.228
 786  1949.906
 787  2033.297
 788  2032.758
 789  2119.975
 790  2070.941
 791  2012.54
 792  1993.718
 793  1937.49
 794  1930.337
 795  1863.877
 796  1822.612
 797  1904.243
 798  2090.604
 799  2169.815
 800  2226.846
 801  2239.785
 802  2242.368
 803  2191.804
 804  2194.986
 805  2222.154
 806  2179.038
 807  2138.132
 808  2139.039
 809  2161.626
 810  2114.997
 811  2226.203
 812  2325.954
 813  2361.456
 814  2214.437
 815  2001.286
 816  2050.402
 817  2131.655
 818  2185.825
 819  2170.3
 820  2139.777
 821  2090.061
 822  2180.111
 823  2290.001
 824  2223.833
 825  2222.295
 826  2262.653
 827  2318.834
 828  2184.566
 829  2073.99
 830  2007.65
 831  2036.6
 832  2092.597
 833  2087.003
 834  2005.409
 835  1941.327
 836  2043.159
 837  2037.914
 838  2093.669
 839  2137.13
 840  2169.297
 841  2157.061
 842  2162.999
 843  2246.438
 844  2234.963
 845  2160.923
 846  2139.679
 847  2128.831
 848  2077.734
 849  1922.126
 850  1911.51
 851  1848.352
 852  1814.789
 853  1750.4
 854  1812.375
 855  1760.221
 856  1807.283
 857  1886.363
 858  1954.172
 859  1890.5
 860  1853.854
 861  1906.594
 862  2036.96
 863  1925.075
 864  1786.97
 865  1734.99
 866  1882.542
 867  2067.778
 868  2075.332
 869  2005.815
 870  1862.065
 871  1705.391
 872  1687.645
 873  1623.117
 874  1701.708
 875  1671.659
 876  1653.198
 877  1615.653
 878  1625.585
 879  1721.181
 880  1874.248
 881  2010.3
 882  1950.799
 883  1763.537
 884  1621.924
 885  1786.664
 886  2060.276
 887  2203.717
 888  2017.494
 889  1852.316
 890  1842.97
 891  1758.784
 892  1692.636
 893  1822.162
 894  1916.172
 895  2004.574
 896  1830.405
 897  1760.791
 898  1664.456
 899  1759.807
 900  1881.271
 901  2003.487
 902  1987.503
 903  2020.57
 904  2032.767
 905  2027.792
 906  1922.686
 907  1947.766
 908  2006.085
 909  1979.364
 910  1928.464
 911  1860.842
 912  1833.882
 913  1836.379
 914  1803.295
 915  1935.677
 916  1808.216
 917  1781.607
 918  1632.925
 919  1615.26
 920  1594.154
 921  1567.009
 922  1764.89
 923  1792.747
 924  1706.911
 925  1600.001
 926  1715.457
 927  1829.965
 928  1769.53
 929  1807.152
 930  1890.569
 931  1857.082
 932  1745.199
 933  1653.993
 934  1695.833
 935  1653.506
 936  1681.117
 937  1780.199
 938  1881.137
 939  1881.979
 940  1836.766
 941  1723.539
 942  1701.124
 943  1763.488
 944  1780.667
 945  1687.865
 946  1760.952
 947  1940.693
 948  2010.129
 949  1900.584
 950  1943.549
 951  1888.194
 952  1849.456
 953  1810.053
 954  1758.9
 955  1827.759
 956  1839.849
 957  1758.457
 958  1777.918
 959  1779.504
 960  1771.987
 961  1784.609
 962  1877.944
 963  2000.347
 964  1865.595
 965  1846.427
 966  1803.843
 967  1907.816
 968  1913.163
 969  2017.245
 970  1940.443
 971  1867.15
 972  1861.236
 973  1899.427
 974  2005.043
 975  2041.646
 976  2075.44
 977  2026.632
 978  2045.586
 979  2077.073
 980  2225.497
 981  2160.504
 982  1951.745
 983  1845.595
 984  1836.496
 985  1871.338
 986  1684.265
 987  1567.192
 988  1691.109
 989  1798.597
 990  1664.045
 991  1471.879
 992  1526.809
 993  1669.837
 994  1784.816
 995  1795.547
 996  1797.171
 997  1831.173
 998  1931.604
 999  1956.423
1000  1862.085
1001  1771.492
1002  1732.818
1003  1774.143
1004  1567.115
1005  1354.705
1006  1205.775
1007  1220.994
1008  1342.376
1009  1472.52
1010  1458.525
1011  1358.412
1012  1419.291
1013  1678.326
1014  1744.168
1015  1787.585
1016  1688.225
1017  1713.157
1018  1577.301
1019  1562.576
1020  1583.592
1021  1698.79
1022  1769.711
1023  1791.913
