# Input file       =  1210393607.115757_cleaned.dat
# Candidate        =  PSR_0332+5434
# Telescope        =  AR
# Epoch_topo       =  58253.185487450894
# Epoch_bary       =  N/A
# T_sample         =  0.002
# Data Folded      =  7143424
# Data Avg         =  0.0463877807222968
# Data StdDev      =  1.00007124463274 
# Profile Bins     =  512
# Profile Avg      =  647.190875017195 
# Profile StdDev   =  118.126999797039 
# Reduced chi-sqr  =  1.557
# Prob(Noise)      <  9.54e-15   (~7.7 sigma)
# P_topo (ms)      =  714.53339737296   +/- 0.000299
# P'_topo (s/s)    =  -0                +/- 1.62e-10
# P''_topo (s/s^2) =  0                 +/- 7.34e-14
# P_bary (ms)      =  N/A
# P'_bary (s/s)    =  N/A
# P''_bary (s/s^2) =  N/A
# P_orb (s)        =  N/A
# asin(i)/c (s)    =  N/A
# eccentricity     =  N/A
# w (rad)          =  N/A
# T_peri           =  N/A
######################################################
   0  698.0181
   1  622.3521
   2  627.4417
   3  628.7936
   4  719.027
   5  726.7601
   6  623.186
   7  765.8978
   8  743.6735
   9  710.3886
  10  697.5691
  11  714.4765
  12  785.9399
  13  814.3165
  14  622.5631
  15  621.7311
  16  723.8822
  17  694.6756
  18  817.1008
  19  746.3373
  20  657.0295
  21  555.6494
  22  584.6663
  23  588.3639
  24  611.0483
  25  774.7802
  26  765.6754
  27  724.1733
  28  760.4239
  29  698.3575
  30  528.5064
  31  607.5003
  32  772.6108
  33  658.7303
  34  701.4095
  35  631.6241
  36  573.2962
  37  673.9144
  38  668.7878
  39  725.749
  40  756.6135
  41  710.306
  42  722.5093
  43  682.9986
  44  562.7606
  45  601.1955
  46  588.0421
  47  748.9875
  48  599.6849
  49  523.7539
  50  654.6672
  51  669.3861
  52  720.2665
  53  714.5988
  54  733.4706
  55  606.4395
  56  626.9146
  57  594.2891
  58  553.9808
  59  517.8644
  60  609.8535
  61  596.3074
  62  490.4272
  63  550.7721
  64  561.9735
  65  546.1216
  66  532.562
  67  566.4238
  68  565.3552
  69  626.045
  70  493.5878
  71  588.697
  72  599.9818
  73  570.3128
  74  625.5713
  75  640.3634
  76  660.9899
  77  462.8517
  78  404.3801
  79  608.493
  80  567.9105
  81  613.0028
  82  480.5437
  83  525.5595
  84  495.4794
  85  657.6212
  86  612.2486
  87  583.0484
  88  669.7142
  89  672.4698
  90  652.0859
  91  644.5194
  92  645.0944
  93  606.1422
  94  651.1498
  95  787.8585
  96  665.1068
  97  660.7336
  98  635.7528
  99  728.0172
 100  842.7246
 101  1068.352
 102  1235.538
 103  1292.024
 104  1397.385
 105  1433.45
 106  1396.148
 107  1108.842
 108  894.8058
 109  806.3027
 110  723.0799
 111  674.624
 112  695.9482
 113  667.4572
 114  636.0266
 115  700.3
 116  628.6327
 117  722.1983
 118  756.033
 119  587.2833
 120  579.6132
 121  599.4846
 122  696.9587
 123  634.7573
 124  633.0585
 125  575.1518
 126  628.457
 127  715.406
 128  760.8436
 129  615.4988
 130  558.2079
 131  588.1948
 132  591.9841
 133  576.721
 134  727.1829
 135  753.2156
 136  726.4397
 137  632.0778
 138  593.343
 139  672.1107
 140  649.2059
 141  646.2261
 142  581.0424
 143  679.3912
 144  729.5268
 145  591.7717
 146  621.6803
 147  675.4255
 148  649.877
 149  757.625
 150  700.1127
 151  562.8331
 152  552.0065
 153  576.2064
 154  528.9655
 155  585.9313
 156  665.4123
 157  732.3862
 158  654.9374
 159  569.5941
 160  621.7504
 161  626.4572
 162  667.2462
 163  601.559
 164  610.1801
 165  616.9258
 166  683.2098
 167  643.5137
 168  656.641
 169  679.8447
 170  668.9742
 171  673.0243
 172  715.1138
 173  771.4384
 174  665.8668
 175  607.2996
 176  707.6602
 177  584.8538
 178  550.4874
 179  622.4241
 180  667.0068
 181  598.548
 182  697.8039
 183  646.7979
 184  594.1119
 185  573.6097
 186  641.8625
 187  670.6526
 188  792.8468
 189  730.2378
 190  607.0721
 191  640.4574
 192  711.9108
 193  752.7745
 194  514.9403
 195  459.9647
 196  627.3698
 197  690.9167
 198  662.2068
 199  615.0782
 200  669.524
 201  616.9935
 202  517.4393
 203  686.0856
 204  632.016
 205  628.8056
 206  737.3907
 207  734.3525
 208  628.6934
 209  665.9401
 210  707.7252
 211  700.0567
 212  688.1949
 213  727.7582
 214  678.373
 215  702.987
 216  752.0824
 217  664.5183
 218  744.8935
 219  738.2422
 220  678.3843
 221  629.696
 222  670.138
 223  699.2458
 224  792.8696
 225  746.8089
 226  660.1404
 227  569.3552
 228  550.5759
 229  546.6002
 230  552.118
 231  518.6876
 232  555.6494
 233  664.5342
 234  637.2973
 235  649.0088
 236  798.4111
 237  722.9678
 238  714.2913
 239  620.1262
 240  580.9154
 241  689.3953
 242  645.4769
 243  678.116
 244  679.5731
 245  684.9615
 246  621.642
 247  548.2028
 248  619.9734
 249  588.8797
 250  530.8414
 251  715.4151
 252  723.0528
 253  730.6288
 254  696.8395
 255  651.875
 256  754.3305
 257  683.478
 258  582.385
 259  586.2891
 260  617.6168
 261  588.9901
 262  545.1485
 263  624.0133
 264  606.4588
 265  660.3497
 266  606.2029
 267  617.0505
 268  632.0048
 269  746.2059
 270  734.1487
 271  716.0969
 272  730.1355
 273  510.9034
 274  542.1437
 275  645.6727
 276  622.8514
 277  576.4589
 278  484.7141
 279  588.261
 280  599.4888
 281  740.0973
 282  642.3337
 283  584.3931
 284  491.5385
 285  662.8434
 286  668.3115
 287  611.3074
 288  742.1736
 289  683.416
 290  601.7718
 291  521.2292
 292  479.6891
 293  472.0674
 294  627.2604
 295  659.5786
 296  595.7018
 297  627.7718
 298  660.851
 299  772.9766
 300  721.9583
 301  687.4233
 302  685.7884
 303  649.4945
 304  640.3469
 305  669.6684
 306  732.4306
 307  747.4567
 308  606.1078
 309  679.7186
 310  709.3324
 311  726.355
 312  737.6471
 313  715.4381
 314  559.5034
 315  557.0675
 316  603.577
 317  635.9269
 318  709.8815
 319  714.5015
 320  639.5818
 321  552.3186
 322  614.3228
 323  651.2216
 324  694.0262
 325  599.187
 326  635.5184
 327  630.4851
 328  615.6199
 329  586.0539
 330  562.4561
 331  607.795
 332  589.5034
 333  509.098
 334  565.8687
 335  613.688
 336  714.5383
 337  733.1412
 338  654.7978
 339  577.9857
 340  496.0697
 341  550.4418
 342  605.2728
 343  575.3646
 344  641.0119
 345  600.3433
 346  562.7888
 347  510.9507
 348  587.4354
 349  621.9026
 350  639.8945
 351  588.1647
 352  604.5162
 353  660.1701
 354  530.1422
 355  607.0493
 356  649.8732
 357  670.9946
 358  662.3041
 359  680.9934
 360  626.0046
 361  539.2903
 362  604.061
 363  640.9343
 364  682.2325
 365  671.1503
 366  571.1929
 367  617.2321
 368  594.6893
 369  603.602
 370  582.0089
 371  629.2104
 372  629.1231
 373  689.3524
 374  630.7771
 375  407.9547
 376  485.9705
 377  526.6986
 378  533.926
 379  526.3907
 380  596.8731
 381  580.746
 382  575.5371
 383  673.6735
 384  565.2767
 385  514.8934
 386  639.1673
 387  601.0927
 388  563.2748
 389  693.3015
 390  646.1683
 391  616.4586
 392  622.8072
 393  564.9276
 394  708.6108
 395  599.9902
 396  551.6055
 397  588.0416
 398  560.4545
 399  555.7049
 400  678.6069
 401  694.4775
 402  609.197
 403  622.1779
 404  578.6062
 405  507.8276
 406  490.6799
 407  586.4341
 408  660.9313
 409  678.0558
 410  574.9299
 411  637.5338
 412  593.4629
 413  533.9595
 414  488.8242
 415  589.8839
 416  479.8518
 417  459.5928
 418  444.8513
 419  578.0688
 420  528.704
 421  583.7898
 422  542.4614
 423  591.0729
 424  647.7611
 425  632.3088
 426  611.7952
 427  637.9075
 428  587.9282
 429  711.0042
 430  632.1202
 431  628.6768
 432  547.7165
 433  540.6336
 434  660.6559
 435  756.2064
 436  748.2772
 437  564.9293
 438  650.1435
 439  588.0967
 440  489.572
 441  504.1913
 442  629.4379
 443  618.5005
 444  544.6429
 445  682.7726
 446  565.1144
 447  547.0627
 448  490.2613
 449  647.8966
 450  668.5247
 451  516.5564
 452  496.2395
 453  601.9033
 454  745.7262
 455  727.7309
 456  694.9907
 457  669.8823
 458  589.2012
 459  595.3933
 460  751.6693
 461  772.1279
 462  773.8886
 463  682.9573
 464  576.0989
 465  677.5276
 466  716.054
 467  602.114
 468  573.1055
 469  699.3367
 470  717.0478
 471  757.3525
 472  753.3561
 473  713.9036
 474  648.9187
 475  642.9936
 476  729.311
 477  692.8164
 478  597.9009
 479  632.2686
 480  671.6989
 481  668.6384
 482  725.2783
 483  817.8405
 484  769.2318
 485  730.7691
 486  651.359
 487  702.8744
 488  622.8319
 489  673.2866
 490  625.1205
 491  584.139
 492  653.3254
 493  708.3781
 494  549.452
 495  667.9131
 496  710.2778
 497  720.0945
 498  741.825
 499  590.942
 500  691.8183
 501  762.0657
 502  664.6619
 503  578.3802
 504  560.7502
 505  615.915
 506  667.635
 507  729.5761
 508  773.1987
 509  755.7082
 510  728.1158
 511  690.7905
