# Input file       =  1210221222.103815-PSRB0329-2ms-sampling-dd.dat
# Candidate        =  PSR_0332+5434
# Telescope        =  AR
# Epoch_topo       =  58251.190290553415
# Epoch_bary       =  N/A
# T_sample         =  0.002
# Data Folded      =  7208960
# Data Avg         =  -4.22569837288252e-10
# Data StdDev      =  9.41021275803988 
# Profile Bins     =  512
# Profile Avg      =  -0.0436997281261121
# Profile StdDev   =  1116.60808991078 
# Reduced chi-sqr  =  0.846
# Prob(Noise)      <  0.995   (~0.0 sigma)
# P_topo (ms)      =  714.535334985937  +/- 4.2e-05
# P'_topo (s/s)    =  -0                +/- 2.26e-11
# P''_topo (s/s^2) =  0                 +/- 1.01e-14
# P_bary (ms)      =  N/A
# P'_bary (s/s)    =  N/A
# P''_bary (s/s^2) =  N/A
# P_orb (s)        =  N/A
# asin(i)/c (s)    =  N/A
# eccentricity     =  N/A
# w (rad)          =  N/A
# T_peri           =  N/A
######################################################
   0  427.189
   1  260.9474
   2  62.76934
   3  -199.8725
   4  -716.1384
   5  -968.8883
   6  -542.8431
   7  409.5428
   8  1665.858
   9  1396.031
  10  1058.452
  11  328.9702
  12  -506.4769
  13  -169.8374
  14  -3.58092
  15  241.0783
  16  1107.597
  17  789.3452
  18  -57.05405
  19  -1310.004
  20  -1046.485
  21  -1357.653
  22  -1394.497
  23  -643.1985
  24  -134.6849
  25  1008.191
  26  539.2495
  27  688.4051
  28  193.3188
  29  78.10384
  30  -541.8062
  31  -691.86
  32  -419.0268
  33  -394.252
  34  -295.6078
  35  -501.1956
  36  -99.98279
  37  -753.7561
  38  -1095.529
  39  -540.2678
  40  20.15073
  41  218.2691
  42  223.9413
  43  260.409
  44  -17.79802
  45  -466.7314
  46  -684.9879
  47  100.1019
  48  -2.335698
  49  -136.2937
  50  -234.1547
  51  -974.4218
  52  -1455.893
  53  -1823.723
  54  -1377.438
  55  -743.0397
  56  -159.2273
  57  1082.635
  58  950.2413
  59  747.4059
  60  -48.88326
  61  14.37373
  62  -30.6178
  63  286.3262
  64  1659.781
  65  2329.284
  66  3254.789
  67  2459.334
  68  1436.733
  69  341.4078
  70  -945.9183
  71  -1325.967
  72  -297.711
  73  381.2649
  74  667.9938
  75  654.4903
  76  286.1316
  77  236.1046
  78  -88.13484
  79  -136.5562
  80  -21.53771
  81  7.906754
  82  933.2506
  83  995.4929
  84  -608.2106
  85  -1656.245
  86  -2116.02
  87  -2008.639
  88  -1487.624
  89  -564.1217
  90  747.7133
  91  1179.841
  92  1121.144
  93  485.9228
  94  67.26865
  95  -732.1102
  96  -555.0616
  97  -357.5959
  98  302.5445
  99  1005.07
 100  271.4491
 101  -1.666365
 102  -515.6361
 103  -833.8625
 104  -1346.06
 105  -1337.218
 106  274.6487
 107  858.6011
 108  862.0925
 109  729.762
 110  147.8129
 111  -799.0811
 112  -517.6855
 113  -612.8006
 114  -166.2545
 115  93.18592
 116  408.0514
 117  -71.12642
 118  -1156.362
 119  -1157.446
 120  -1163.694
 121  -1156.038
 122  -874.5005
 123  111.6164
 124  705.9542
 125  684.1975
 126  668.0078
 127  -243.3362
 128  -403.589
 129  -725.2927
 130  -432.3879
 131  274.2144
 132  483.1304
 133  161.3373
 134  -192.8734
 135  -664.547
 136  -967.7094
 137  -862.7618
 138  -250.1016
 139  337.6877
 140  815.7147
 141  1131.215
 142  625.5847
 143  358.9019
 144  98.26212
 145  340.397
 146  267.8809
 147  -189.1522
 148  -84.18717
 149  16.22219
 150  -661.3838
 151  -1076.194
 152  -1028.687
 153  -681.9893
 154  -1219.646
 155  -396.6597
 156  671.0627
 157  1342.543
 158  1422.599
 159  227.7455
 160  -358.9651
 161  -559.726
 162  -720.222
 163  -234.9967
 164  656.5762
 165  1350.508
 166  1327.058
 167  559.1352
 168  -469.2159
 169  -1416.009
 170  -1774.537
 171  -1362.812
 172  504.6961
 173  1371.574
 174  1059.779
 175  399.3422
 176  810.5287
 177  84.65134
 178  -365.7084
 179  132.7971
 180  -399.5404
 181  -404.1422
 182  -160.3505
 183  -262.445
 184  -788.0938
 185  -321.3549
 186  -543.9866
 187  -638.7724
 188  -345.1445
 189  10.05436
 190  1308.074
 191  1297.724
 192  990.0332
 193  132.8094
 194  -672.3261
 195  -679.7679
 196  -973.5201
 197  135.3393
 198  895.5598
 199  699.7303
 200  113.0819
 201  -1029.834
 202  -973.623
 203  -849.3251
 204  -62.19626
 205  259.6587
 206  950.8107
 207  1577.793
 208  1023.482
 209  940.7258
 210  530.3876
 211  307.1553
 212  20.01609
 213  -271.7607
 214  -70.78819
 215  34.99761
 216  -168.0551
 217  -523.1492
 218  -268.5081
 219  -461.9257
 220  -351.5412
 221  -50.2085
 222  490.8234
 223  652.1928
 224  945.5091
 225  738.4692
 226  -222.9702
 227  140.0204
 228  -5.487422
 229  -27.33134
 230  44.43341
 231  464.0236
 232  487.1086
 233  -594.8613
 234  -575.6416
 235  -911.6161
 236  -955.031
 237  -1038.646
 238  249.491
 239  1656.125
 240  873.1584
 241  1097.971
 242  319.8898
 243  -433.4175
 244  -835.0981
 245  -565.2032
 246  385.1065
 247  -178.7355
 248  -21.46971
 249  -132.193
 250  -585.0434
 251  -1070.325
 252  -558.887
 253  -780.2678
 254  -312.3435
 255  544.773
 256  722.0692
 257  774.2621
 258  15.69434
 259  145.1834
 260  478.4299
 261  671.4861
 262  793.4885
 263  -179.1122
 264  -19.2434
 265  86.87315
 266  -520.696
 267  -890.8387
 268  -817.3596
 269  -769.1103
 270  -643.744
 271  353.4637
 272  1098.429
 273  1482.442
 274  1286.504
 275  1202.359
 276  747.47
 277  -267.3038
 278  308.2648
 279  218.8312
 280  309.8736
 281  768.152
 282  411.9233
 283  163.1392
 284  -858.0883
 285  -686.8856
 286  -389.5428
 287  -294.1053
 288  273.3599
 289  908.8483
 290  1541.691
 291  832.1411
 292  743.7601
 293  542.9492
 294  937.0889
 295  142.3392
 296  -37.23302
 297  346.4288
 298  42.01469
 299  -131.2116
 300  -277.6789
 301  41.04171
 302  -453.0309
 303  -92.13547
 304  -9.30591
 305  992.4293
 306  1316.99
 307  591.9385
 308  1064.764
 309  -199.7318
 310  -399.8485
 311  -560.8246
 312  -286.4597
 313  110.4224
 314  -16.09456
 315  205.9743
 316  -309.6402
 317  -470.4997
 318  -930.9312
 319  -586.8291
 320  -12.02841
 321  -23.84177
 322  852.3558
 323  1179.851
 324  1170.824
 325  265.9813
 326  448.7963
 327  679.3712
 328  -95.40597
 329  407.256
 330  376.4512
 331  -374.4045
 332  -1066.303
 333  -806.411
 334  -520.5136
 335  -172.9738
 336  -108.4062
 337  478.5408
 338  918.3729
 339  507.3195
 340  144.9778
 341  -139.1578
 342  -569.6258
 343  -260.6641
 344  -263.3727
 345  -70.45575
 346  21.54254
 347  771.1412
 348  541.0339
 349  -21.33394
 350  -832.9196
 351  -1599.291
 352  -1263.604
 353  -745.1192
 354  615.0457
 355  1160.376
 356  1646.993
 357  978.8799
 358  -245.146
 359  103.3213
 360  -138.7047
 361  88.94113
 362  -51.39439
 363  128.3627
 364  515.3369
 365  -204.572
 366  -152.352
 367  -83.93489
 368  -209.9953
 369  -845.6342
 370  -86.93303
 371  598.0924
 372  450.177
 373  396.3044
 374  79.96095
 375  395.3998
 376  13.87778
 377  -54.81723
 378  -638.9986
 379  -327.7213
 380  -1.797718
 381  -422.3655
 382  -712.5354
 383  -1088.055
 384  -1319.6
 385  -1147.242
 386  -700.431
 387  -65.10414
 388  365.7197
 389  1091.416
 390  635.6008
 391  302.2553
 392  -325.2704
 393  -438.4878
 394  -219.8983
 395  -557.8884
 396  160.8866
 397  183.4715
 398  -540.2007
 399  -1156.587
 400  -417.1978
 401  -613.8671
 402  -429.0846
 403  195.4133
 404  691.4862
 405  641.6953
 406  86.98768
 407  -237.5942
 408  -1036.665
 409  -238.0613
 410  214.8838
 411  -167.4785
 412  178.4025
 413  -336.5595
 414  -783.2916
 415  -1510.834
 416  -1856.648
 417  -1726.638
 418  -1045.242
 419  -508.3842
 420  637.0248
 421  1089.357
 422  978.9844
 423  1117.066
 424  527.9214
 425  -455.6733
 426  527.3628
 427  391.2615
 428  59.5258
 429  124.0727
 430  526.0297
 431  810.5481
 432  -20.77449
 433  -335.2236
 434  -1167.637
 435  -1049.513
 436  -199.3941
 437  610.4512
 438  1118.864
 439  932.2302
 440  400.5502
 441  160.7932
 442  379.2386
 443  -300.4234
 444  29.23112
 445  8.438442
 446  -326.526
 447  122.0155
 448  -489.8614
 449  -576.6298
 450  -710.1725
 451  -528.1455
 452  -259.7388
 453  -179.0297
 454  425.3262
 455  973.4767
 456  1105.06
 457  346.4578
 458  461.8314
 459  -255.6361
 460  -511.3751
 461  28.27661
 462  185.1733
 463  582.6757
 464  -360.6802
 465  -909.2921
 466  -1006.46
 467  -1404.528
 468  -779.1321
 469  67.58946
 470  771.2832
 471  212.297
 472  33.77372
 473  -24.67378
 474  453.5063
 475  583.1887
 476  680.9269
 477  366.1752
 478  -246.5787
 479  -428.0186
 480  -850.8979
 481  -970.2891
 482  -948.3214
 483  -767.2787
 484  -512.5981
 485  -71.07059
 486  932.314
 487  1074.822
 488  1093.825
 489  374.6987
 490  -21.92503
 491  -620.0419
 492  -633.3979
 493  -87.2626
 494  372.8188
 495  1168.576
 496  671.7852
 497  -30.20163
 498  -740.6821
 499  -783.6096
 500  -1202.58
 501  -1029.419
 502  134.827
 503  1261.358
 504  1638.723
 505  846.2545
 506  1024.209
 507  711.2779
 508  -25.32848
 509  97.25556
 510  -164.4799
 511  -44.58192
