# Input file       =  1210494378.115824_cleaned.dat
# Candidate        =  PSR_0332+5434
# Telescope        =  AR
# Epoch_topo       =  58254.351818470182
# Epoch_bary       =  N/A
# T_sample         =  0.002
# Data Folded      =  7340032
# Data Avg         =  0.0978668060010285
# Data StdDev      =  4.4116441400092  
# Profile Bins     =  512
# Profile Avg      =  1403.10495001749 
# Profile StdDev   =  528.219548297068 
# Reduced chi-sqr  =  1.289
# Prob(Noise)      <  1.03e-05   (~4.3 sigma)
# P_topo (ms)      =  714.532273123429  +/- 0.000877
# P'_topo (s/s)    =  -0                +/- 4.63e-10
# P''_topo (s/s^2) =  0                 +/- 2.04e-13
# P_bary (ms)      =  N/A
# P'_bary (s/s)    =  N/A
# P''_bary (s/s^2) =  N/A
# P_orb (s)        =  N/A
# asin(i)/c (s)    =  N/A
# eccentricity     =  N/A
# w (rad)          =  N/A
# T_peri           =  N/A
######################################################
   0  1595.897
   1  1342.68
   2  1257.93
   3  1708.196
   4  1771.559
   5  1354.666
   6  1435.468
   7  1505.699
   8  1524.796
   9  1480.787
  10  1778.68
  11  1709.218
  12  1370.319
  13  1398.3
  14  1394.797
  15  1610.923
  16  1453.333
  17  1261.727
  18  1247.728
  19  1441.729
  20  1396.955
  21  1376.107
  22  1553.659
  23  1532.238
  24  1492.93
  25  1407.356
  26  1367.456
  27  1197.958
  28  1245.934
  29  1376.707
  30  1165.358
  31  1123.109
  32  1358.291
  33  1566.209
  34  1377.839
  35  1595.469
  36  1375.256
  37  1328.838
  38  1379.355
  39  1726.434
  40  1666.427
  41  1765.898
  42  1717.187
  43  1587.053
  44  1570.71
  45  1750.126
  46  1487.137
  47  1364.056
  48  1420.255
  49  1514.043
  50  1395.116
  51  1461.969
  52  1950.206
  53  1881.02
  54  1848.296
  55  1702.982
  56  1958.065
  57  1747.497
  58  1379.794
  59  1478.929
  60  1795.754
  61  1487.892
  62  1482.337
  63  1653.847
  64  1720.538
  65  1723.187
  66  1947.218
  67  1692.31
  68  1689.444
  69  1819.438
  70  2086.162
  71  2113.683
  72  1936.631
  73  2186.391
  74  1920.646
  75  2001.05
  76  1874.78
  77  1770.572
  78  1683.1
  79  1878.544
  80  1911.768
  81  2112.134
  82  2057.119
  83  2144.893
  84  1921.982
  85  1935.285
  86  2197.165
  87  2209.879
  88  2189.748
  89  2268.357
  90  2028.187
  91  1995.913
  92  1778.633
  93  1637.159
  94  1420.529
  95  1677.893
  96  1832.906
  97  1679.945
  98  1724.907
  99  1660.999
 100  1839.54
 101  1982.195
 102  1573.114
 103  1563.084
 104  1649.291
 105  1770.292
 106  1578.894
 107  1694.816
 108  1570.027
 109  1633.331
 110  1437.196
 111  1315.144
 112  1591.716
 113  1650.725
 114  1533.813
 115  1382.901
 116  986.6508
 117  1309.294
 118  1572.406
 119  1480.741
 120  1862.079
 121  1367.608
 122  1169.11
 123  1421.318
 124  1329.043
 125  1277.906
 126  1582.398
 127  1288.638
 128  1141.333
 129  1047.569
 130  1318.059
 131  1309.464
 132  1147.103
 133  1135.555
 134  935.4699
 135  866.3219
 136  936.2993
 137  809.2962
 138  537.2662
 139  315.4522
 140  319.2399
 141  260.5277
 142  535.5312
 143  797.2119
 144  840.1231
 145  809.1381
 146  1078.471
 147  902.839
 148  873.0128
 149  837.1587
 150  1058.736
 151  987.3212
 152  839.4167
 153  798.2472
 154  454.2309
 155  548.8133
 156  756.1857
 157  547.7501
 158  500.3932
 159  638.8567
 160  502.6624
 161  1127.104
 162  1285.596
 163  1008.028
 164  1148.075
 165  1168.377
 166  1241.195
 167  976.8792
 168  906.5637
 169  964.6446
 170  631.2411
 171  504.3859
 172  645.3465
 173  730.9034
 174  786.7719
 175  1177.891
 176  1213.519
 177  1157.022
 178  545.4433
 179  843.7061
 180  1002.913
 181  800.593
 182  823.0109
 183  892.7891
 184  919.3199
 185  1061.109
 186  628.7422
 187  649.4662
 188  1000.386
 189  1125.342
 190  1009.328
 191  1013.481
 192  1075.151
 193  1042.909
 194  964.8057
 195  1387.788
 196  1398.216
 197  1150.545
 198  1031.071
 199  1160.783
 200  926.8668
 201  990.7262
 202  1094.375
 203  1223.788
 204  1092.379
 205  1071.922
 206  1366.148
 207  1086.339
 208  720.2355
 209  889.0712
 210  1040.859
 211  1224.879
 212  1108.81
 213  1098.844
 214  1187.313
 215  1125.193
 216  818.5964
 217  865.2719
 218  1501.646
 219  1383.475
 220  1176.385
 221  946.7783
 222  914.7594
 223  972.6306
 224  918.2531
 225  909.4802
 226  664.1164
 227  845.9523
 228  1034.004
 229  1176.94
 230  1087.99
 231  826.8126
 232  908.1432
 233  1180.483
 234  1315.192
 235  1237.838
 236  1104.024
 237  822.7228
 238  815.5104
 239  1079
 240  1181.911
 241  1086.026
 242  827.8797
 243  885.434
 244  907.7956
 245  1271.316
 246  1361.152
 247  1300.818
 248  1442.745
 249  1387.862
 250  1268.639
 251  1302.351
 252  1199.98
 253  1190.159
 254  1419.031
 255  1291.434
 256  1460.896
 257  1568.86
 258  1503.953
 259  1323.29
 260  1230.932
 261  1254.767
 262  1385.159
 263  1354.473
 264  1517.305
 265  1430.668
 266  1522.023
 267  1444.948
 268  1326.041
 269  1397.176
 270  1644.651
 271  1704.084
 272  1490.05
 273  1834.812
 274  1785.074
 275  1446.52
 276  1633.786
 277  1905.445
 278  1762.156
 279  1841.637
 280  1933.083
 281  1680.221
 282  1312.2
 283  1552.466
 284  1354.438
 285  1428.855
 286  1393.38
 287  1455.847
 288  1402.539
 289  1413.408
 290  1265.935
 291  1332.281
 292  1693.215
 293  1566.062
 294  1257.329
 295  1170.987
 296  1286.726
 297  1158.917
 298  1071.593
 299  1274.717
 300  1236.456
 301  1211.989
 302  1068.987
 303  1349.098
 304  1578.464
 305  1460.047
 306  1307.731
 307  1130.496
 308  1037.319
 309  1285.107
 310  1624.328
 311  1638.491
 312  1418.509
 313  1606.099
 314  1468.534
 315  1469.273
 316  1173.749
 317  1186.41
 318  1187.627
 319  1295.94
 320  1416.478
 321  1505.956
 322  1583.464
 323  1536.811
 324  1370.553
 325  1555.492
 326  1700.046
 327  1976.809
 328  2206.046
 329  2931.431
 330  3473.454
 331  3959.506
 332  3941.417
 333  3684.889
 334  2854.603
 335  2111.933
 336  1516.884
 337  1785.435
 338  1804.477
 339  1245.407
 340  1289.509
 341  1313.475
 342  1278.401
 343  1300.027
 344  1382.098
 345  1596.04
 346  1726.062
 347  1505.46
 348  1514.906
 349  1262.996
 350  1122.866
 351  1018.582
 352  1039.217
 353  1241.029
 354  1275.445
 355  880.7988
 356  928.3367
 357  1264.865
 358  1529.035
 359  1334.74
 360  1128.715
 361  882.1824
 362  1022.568
 363  1037.22
 364  1133.595
 365  1015.361
 366  1187.221
 367  1228.008
 368  981.4615
 369  625.8712
 370  272.2975
 371  602.0615
 372  989.6359
 373  952.2652
 374  1030.161
 375  1103.589
 376  696.7155
 377  724.8935
 378  891.446
 379  1072.129
 380  1293.117
 381  1062.249
 382  964.7983
 383  726.0535
 384  918.1108
 385  1089.996
 386  840.4351
 387  1005.323
 388  1197.304
 389  1537.882
 390  1588.43
 391  1394.308
 392  1393.224
 393  1088.937
 394  951.9474
 395  1412.032
 396  1469.842
 397  1435.94
 398  1458.407
 399  1497.532
 400  1569.86
 401  1113.696
 402  1140.627
 403  965.3771
 404  1157.268
 405  1469.147
 406  1588.271
 407  1455.657
 408  1148.705
 409  1501.07
 410  1697.434
 411  1468.217
 412  1919.289
 413  2043.255
 414  1778.849
 415  1457.211
 416  1320.539
 417  1551.387
 418  1483.905
 419  1321.087
 420  1715.46
 421  1881.827
 422  1731.993
 423  1822.243
 424  1724.25
 425  1840.595
 426  1838.605
 427  1701.437
 428  1866.036
 429  1933.208
 430  1859.005
 431  1846.83
 432  1743.892
 433  1698.85
 434  1797.249
 435  1774.641
 436  1655.538
 437  1502.034
 438  1624.173
 439  1882.84
 440  1472.752
 441  1195.619
 442  1189.982
 443  1537.84
 444  1030.917
 445  1265.084
 446  1395.808
 447  1375.167
 448  1388.293
 449  1544.005
 450  1132.465
 451  1238.902
 452  1446.628
 453  1724.998
 454  1690.017
 455  1645.483
 456  1840.194
 457  1947.541
 458  1683.08
 459  1740.1
 460  1813.483
 461  1739.302
 462  1706.926
 463  1844.094
 464  1971.4
 465  1764.366
 466  2064.984
 467  2083.097
 468  1672.42
 469  1707.625
 470  1668.408
 471  1765.617
 472  1600.257
 473  1605.093
 474  1594.345
 475  1399.541
 476  1619.005
 477  1765.762
 478  1766.861
 479  1682.645
 480  1785.555
 481  1983.16
 482  1693.687
 483  1358.036
 484  1667.151
 485  1780.662
 486  1412.879
 487  1476.441
 488  1912.924
 489  1908.775
 490  1818.297
 491  1656.628
 492  1580.03
 493  1615.688
 494  1703.558
 495  1552.415
 496  1391.282
 497  1493.653
 498  1607.201
 499  1468.657
 500  1396.155
 501  1660.294
 502  1615.579
 503  1728.507
 504  1589.994
 505  1727.057
 506  1557.282
 507  1385.695
 508  1507.772
 509  1746.573
 510  1519.781
 511  1640.265
