# Input file       =  1210752853.118745_cleaned.dat
# Candidate        =  PSR_0332+5434
# Telescope        =  AR
# Epoch_topo       =  58257.343427300293
# Epoch_bary       =  N/A
# T_sample         =  0.002
# Data Folded      =  7340032
# Data Avg         =  0.0867516374439994
# Data StdDev      =  4.74857827857762 
# Profile Bins     =  1024
# Profile Avg      =  621.753523520611 
# Profile StdDev   =  402.033830599666 
# Reduced chi-sqr  =  1.097
# Prob(Noise)      <  0.0158   (~2.1 sigma)
# P_topo (ms)      =  714.529338849699  +/- 0.000411
# P'_topo (s/s)    =  -0                +/- 2.17e-10
# P''_topo (s/s^2) =  0                 +/- 9.58e-14
# P_bary (ms)      =  N/A
# P'_bary (s/s)    =  N/A
# P''_bary (s/s^2) =  N/A
# P_orb (s)        =  N/A
# asin(i)/c (s)    =  N/A
# eccentricity     =  N/A
# w (rad)          =  N/A
# T_peri           =  N/A
######################################################
   0  603.281
   1  595.5886
   2  536.233
   3  528.576
   4  417.2709
   5  467.4532
   6  472.6317
   7  502.0738
   8  438.1929
   9  468.9643
  10  588.2637
  11  570.1387
  12  499.4642
  13  483.9228
  14  626.2798
  15  718.1772
  16  606.3054
  17  530.276
  18  492.5383
  19  441.3293
  20  495.1224
  21  590.5323
  22  721.2796
  23  684.5278
  24  685.5405
  25  783.9304
  26  862.0792
  27  742.1624
  28  686.8018
  29  614.4254
  30  628.3498
  31  665.5856
  32  701.8234
  33  702.024
  34  766.6309
  35  786.3487
  36  831.2388
  37  718.8043
  38  680.8609
  39  682.2976
  40  784.4485
  41  816.7247
  42  726.746
  43  667.7285
  44  593.9665
  45  625.2057
  46  732.8849
  47  797.6
  48  707.8096
  49  665.4049
  50  637.4449
  51  637.8375
  52  635.2199
  53  521.171
  54  458.1124
  55  405.1042
  56  493.0106
  57  536.6185
  58  568.4163
  59  481.3327
  60  394.9312
  61  346.482
  62  450.1118
  63  547.5019
  64  652.8652
  65  564.4791
  66  454.5039
  67  293.1701
  68  328.7223
  69  322.0065
  70  460.436
  71  474.87
  72  450.049
  73  359.1963
  74  475.282
  75  471.7333
  76  557.8101
  77  518.7521
  78  544.3456
  79  550.6096
  80  469.1124
  81  331.3022
  82  240.4628
  83  327.804
  84  390.0962
  85  494.3222
  86  448.4297
  87  608.0044
  88  538.5878
  89  382.1657
  90  176.642
  91  97.78664
  92  100.2874
  93  144.3389
  94  245.6889
  95  270.1807
  96  266.3903
  97  308.602
  98  304.3185
  99  352.0947
 100  349.4528
 101  436.9798
 102  498.3
 103  450.72
 104  464.8555
 105  550.1558
 106  629.4367
 107  660.2894
 108  618.4543
 109  671.2848
 110  639.8634
 111  595.91
 112  543.0955
 113  589.5195
 114  678.4849
 115  734.4751
 116  788.8091
 117  808.9832
 118  852.1464
 119  871.0923
 120  754.6138
 121  645.3737
 122  451.849
 123  447.5914
 124  410.7098
 125  445.4373
 126  588.4904
 127  779.8151
 128  819.6224
 129  760.2993
 130  636.2669
 131  556.8005
 132  596.3527
 133  641.8807
 134  721.9121
 135  657.1234
 136  608.374
 137  493.3581
 138  385.5634
 139  383.3386
 140  546.4093
 141  548.7976
 142  549.9014
 143  679.4872
 144  712.1009
 145  664.0536
 146  448.3679
 147  486.4875
 148  459.7057
 149  514.7323
 150  527.636
 151  633.4478
 152  460.607
 153  384.4789
 154  324.6441
 155  432.5743
 156  351.4382
 157  438.0703
 158  525.3468
 159  656.5112
 160  819.6227
 161  841.6031
 162  849.7481
 163  722.845
 164  742.3326
 165  727.0585
 166  733.9045
 167  718.1096
 168  635.9341
 169  529.9504
 170  533.691
 171  502.5058
 172  590.7195
 173  637.0089
 174  742.3926
 175  750.0839
 176  698.173
 177  723.4008
 178  793.5714
 179  779.9131
 180  722.1632
 181  719.3442
 182  763.5797
 183  752.4668
 184  850.5519
 185  907.3197
 186  946.3375
 187  851.4578
 188  771.2639
 189  864.535
 190  917.897
 191  948.4007
 192  935.0795
 193  974.917
 194  933.0309
 195  835.2706
 196  772.151
 197  763.3482
 198  817.3028
 199  826.9158
 200  921.5099
 201  987.2341
 202  1019.989
 203  970.7378
 204  1065.526
 205  1007.948
 206  916.458
 207  919.6378
 208  1049.811
 209  1098.208
 210  1045.019
 211  1001.388
 212  982.6625
 213  949.1137
 214  917.375
 215  727.6176
 216  766.9649
 217  896.4435
 218  1108.704
 219  1130.714
 220  1171.154
 221  1096.122
 222  1110.845
 223  1027.988
 224  1102.754
 225  1017.769
 226  988.3907
 227  847.5762
 228  767.5928
 229  776.5917
 230  708.7866
 231  771.7494
 232  772.2252
 233  743.6868
 234  652.1215
 235  600.791
 236  635.5058
 237  700.5831
 238  782.7539
 239  861.1218
 240  861.6133
 241  807.2344
 242  654.2197
 243  415.6708
 244  448.4264
 245  553.6539
 246  671.0226
 247  607.5203
 248  581.4044
 249  512.2406
 250  463.4411
 251  489.7553
 252  609.2014
 253  508.9749
 254  323.4744
 255  240.939
 256  292.7523
 257  364.8112
 258  481.178
 259  557.4496
 260  634.3442
 261  601.8719
 262  659.1252
 263  674.4763
 264  674.4889
 265  747.8087
 266  661.6085
 267  500.2332
 268  494.8047
 269  619.7909
 270  678.3021
 271  476.0321
 272  371.2402
 273  400.6921
 274  378.994
 275  371.389
 276  300.1687
 277  514.929
 278  478.2966
 279  518.9052
 280  462.9337
 281  389.6567
 282  366.2346
 283  431.2462
 284  597.7958
 285  491.1078
 286  439.436
 287  501.0193
 288  477.3449
 289  498.8739
 290  466.2544
 291  542.1959
 292  431.5858
 293  379.5705
 294  485.5784
 295  532.4319
 296  591.8329
 297  659.2637
 298  634.3628
 299  693.5938
 300  594.3428
 301  608.5051
 302  569.7778
 303  450.4682
 304  358.484
 305  289.9587
 306  256.0437
 307  296.2362
 308  291.8588
 309  350.7935
 310  325.2623
 311  307.8754
 312  442.9159
 313  555.4902
 314  505.773
 315  357.0896
 316  226.3933
 317  202.8599
 318  297.5518
 319  295.2792
 320  399.2848
 321  389.3649
 322  441.0178
 323  349.3938
 324  455.3866
 325  440.166
 326  504.4994
 327  410.7568
 328  441.7003
 329  410.5713
 330  413.5643
 331  475.9702
 332  528.2663
 333  394.0647
 334  327.3737
 335  280.7785
 336  318.0382
 337  394.1381
 338  455.1168
 339  435.33
 340  367.3927
 341  287.3748
 342  303.6673
 343  365.6924
 344  515.9997
 345  563.1021
 346  437.0487
 347  327.7228
 348  439.1889
 349  637.1862
 350  739.8824
 351  722.8671
 352  781.1718
 353  840.6522
 354  733.5861
 355  655.8071
 356  567.7511
 357  589.3085
 358  589.5331
 359  587.1915
 360  546.0392
 361  587.3062
 362  727.5539
 363  883.2482
 364  955.3159
 365  940.21
 366  878.7088
 367  892.672
 368  831.2109
 369  893.5396
 370  862.9797
 371  870.9845
 372  775.3223
 373  875.4495
 374  873.3705
 375  785.9553
 376  669.8286
 377  797.2571
 378  960.8552
 379  1030.754
 380  982.9673
 381  882.4454
 382  945.7927
 383  888.4556
 384  795.7885
 385  702.0726
 386  771.5164
 387  936.4225
 388  1040.695
 389  1061.583
 390  1002.331
 391  1004.527
 392  1083
 393  1170.191
 394  1006.707
 395  825.616
 396  636.6222
 397  621.9039
 398  714.9009
 399  804.18
 400  831.5489
 401  725.3909
 402  737.4987
 403  853.4199
 404  899.8403
 405  931.4606
 406  842.9968
 407  842.9013
 408  824.8626
 409  803.9943
 410  825.2612
 411  741.3084
 412  783.7264
 413  858.5847
 414  940.9105
 415  729.1003
 416  680.7941
 417  823.8859
 418  947.735
 419  904.1284
 420  756.6722
 421  766.8619
 422  807.5908
 423  901.546
 424  984.8398
 425  958.6353
 426  877.8679
 427  782.803
 428  860.4188
 429  1031.371
 430  1111.411
 431  1147.977
 432  1081.106
 433  1068.875
 434  909.0552
 435  936.1292
 436  823.2008
 437  845.3137
 438  919.8917
 439  1094.579
 440  1131.705
 441  1064.992
 442  1022.692
 443  1102.393
 444  1015.194
 445  901.1146
 446  816.3603
 447  1027.556
 448  1221.439
 449  1245.824
 450  1080.359
 451  1000.966
 452  924.1048
 453  896.1279
 454  924.0546
 455  1061.678
 456  1104.253
 457  1067.82
 458  984.7563
 459  893.0019
 460  695.7277
 461  696.7755
 462  778.6804
 463  907.2838
 464  868.1608
 465  889.6693
 466  886.205
 467  912.3087
 468  926.9768
 469  921.6737
 470  972.7263
 471  975.3838
 472  902.1119
 473  914.8194
 474  887.3477
 475  755.338
 476  670.6794
 477  717.9681
 478  795.3187
 479  910.3221
 480  889.309
 481  827.0119
 482  686.6552
 483  596.5728
 484  660.6002
 485  753.6611
 486  897.9028
 487  874.5665
 488  784.4807
 489  690.4892
 490  723.3176
 491  725.4729
 492  690.7537
 493  667.3115
 494  600.0009
 495  629.092
 496  609.5718
 497  670.0728
 498  634.2156
 499  566.615
 500  465.9112
 501  472.7334
 502  510.6064
 503  496.6284
 504  413.4191
 505  412.2586
 506  416.5355
 507  567.3592
 508  576.052
 509  613.6911
 510  534.8014
 511  552.0938
 512  552.7223
 513  557.3848
 514  548.3214
 515  620.017
 516  631.9241
 517  647.7498
 518  536.0209
 519  423.0622
 520  384.4541
 521  499.6927
 522  583.206
 523  571.4934
 524  533.899
 525  582.2833
 526  626.7264
 527  614.6378
 528  622.426
 529  736.9391
 530  651.3002
 531  676.4725
 532  562.5313
 533  475.6912
 534  418.4849
 535  457.179
 536  510.7039
 537  549.9433
 538  490.4719
 539  541.5852
 540  547.3034
 541  633.1567
 542  586.7435
 543  571.084
 544  693.206
 545  723.3946
 546  641.4622
 547  533.072
 548  453.5589
 549  370.131
 550  314.2504
 551  383.5546
 552  496.9821
 553  512.6152
 554  519.9705
 555  623.9848
 556  670.5702
 557  674.737
 558  696.6235
 559  769.3985
 560  880.6827
 561  726.178
 562  796.1176
 563  802.5287
 564  902.0457
 565  747.3885
 566  709.9581
 567  542.8375
 568  360.6394
 569  334.1624
 570  495.7545
 571  560.0661
 572  512.7961
 573  534.0103
 574  463.3116
 575  405.9482
 576  387.9051
 577  384.4914
 578  370.5102
 579  311.3578
 580  324.8286
 581  423.6545
 582  644.2183
 583  699.0882
 584  668.4025
 585  558.2635
 586  562.0728
 587  502.739
 588  406.2482
 589  335.4753
 590  437.9621
 591  643.5917
 592  815.2567
 593  934.4603
 594  1036.732
 595  1167.99
 596  1258.466
 597  1349.692
 598  1440.446
 599  1499.621
 600  1522.246
 601  1413.996
 602  1239.615
 603  1123.023
 604  1145.799
 605  1144.946
 606  975.4275
 607  755.3309
 608  577.3531
 609  506.3725
 610  543.9566
 611  567.326
 612  558.2281
 613  527.1057
 614  459.2078
 615  445.0412
 616  506.1801
 617  518.2246
 618  674.737
 619  724.095
 620  884.3671
 621  880.52
 622  911.2054
 623  898.4316
 624  836.2192
 625  975.8129
 626  962.155
 627  1003.794
 628  896.3126
 629  872.9575
 630  920.6368
 631  1015.612
 632  1006.93
 633  1043.134
 634  1093.118
 635  1049.589
 636  1035.012
 637  963.2435
 638  1064.948
 639  977.1708
 640  939.6169
 641  851.2469
 642  844.2634
 643  874.2452
 644  843.5126
 645  867.5891
 646  857.3861
 647  896.1604
 648  801.1482
 649  793.5895
 650  879.2146
 651  867.6214
 652  787.8206
 653  762.3997
 654  849.4839
 655  890.7512
 656  984.0724
 657  988.1769
 658  907.6855
 659  755.4698
 660  680.9505
 661  716.7557
 662  704.3801
 663  702.7425
 664  718.4016
 665  595.0664
 666  538.4301
 667  389.0722
 668  487.6787
 669  640.0834
 670  665.5264
 671  741.7034
 672  686.9117
 673  706.0338
 674  678.4343
 675  765.869
 676  783.0146
 677  683.5585
 678  671.1376
 679  566.0617
 680  603.2656
 681  571.1702
 682  693.0875
 683  706.565
 684  670.4129
 685  621.0846
 686  596.9304
 687  577.0165
 688  605.5927
 689  615.8582
 690  609.5092
 691  684.0182
 692  731.9104
 693  787.3639
 694  717.9739
 695  728.7245
 696  728.4633
 697  634.6188
 698  581.3253
 699  539.3245
 700  569.8094
 701  564.6858
 702  596.8674
 703  609.4753
 704  514.6043
 705  510.2133
 706  639.5425
 707  829.671
 708  968.1803
 709  993.3944
 710  853.4525
 711  755.0634
 712  725.3909
 713  804.6417
 714  802.9946
 715  855.7344
 716  845.2464
 717  809.3199
 718  729.5114
 719  704.0578
 720  774.8582
 721  777.6033
 722  787.398
 723  672.4039
 724  637.3329
 725  551.1762
 726  534.9891
 727  460.6971
 728  478.7401
 729  657.256
 730  738.1892
 731  723.0618
 732  504.2654
 733  376.3574
 734  363.5462
 735  342.5071
 736  351.4999
 737  329.0795
 738  451.1551
 739  501.811
 740  473.0282
 741  317.3723
 742  344.4898
 743  439.6029
 744  582.9152
 745  623.3626
 746  593.3187
 747  568.0694
 748  402.8898
 749  377.9949
 750  390.0146
 751  522.4878
 752  465.3772
 753  449.539
 754  195.8937
 755  85.94748
 756  45.25596
 757  89.08391
 758  183.1679
 759  160.2145
 760  225.5666
 761  301.545
 762  236.4526
 763  67.43123
 764  -0.9051258
 765  -28.20375
 766  177.938
 767  141.1087
 768  138.0862
 769  19.88541
 770  -0.9071676
 771  42.83054
 772  120.2986
 773  146.3923
 774  93.56902
 775  157.8205
 776  296.8463
 777  364.5503
 778  220.3639
 779  144.8066
 780  138.7448
 781  175.9034
 782  191.7206
 783  160.2746
 784  273.3183
 785  276.5858
 786  236.1392
 787  90.84832
 788  83.47775
 789  247.119
 790  287.6976
 791  275.7594
 792  285.5479
 793  294.4496
 794  259.2983
 795  257.8002
 796  376.1627
 797  350.3196
 798  281.985
 799  278.4117
 800  289.0654
 801  359.7447
 802  378.2395
 803  435.263
 804  484.4795
 805  481.2751
 806  540.9285
 807  530.1725
 808  608.7238
 809  511.8093
 810  456.7432
 811  461.5891
 812  506.2573
 813  455.2883
 814  391.8703
 815  412.4363
 816  494.2595
 817  425.6773
 818  460.6098
 819  461.2964
 820  547.0789
 821  503.2344
 822  478.4841
 823  472.2337
 824  360.3664
 825  309.0313
 826  362.9813
 827  482.3093
 828  485.4849
 829  413.3931
 830  438.8793
 831  514.7642
 832  598.2523
 833  599.6068
 834  529.1526
 835  399.3154
 836  236.9178
 837  160.1522
 838  108.4279
 839  152.0818
 840  171.7142
 841  270.1815
 842  393.2281
 843  423.3232
 844  416.46
 845  433.0798
 846  423.0459
 847  540.9806
 848  498.177
 849  465.06
 850  392.463
 851  358.5175
 852  333.0455
 853  280.2665
 854  396.3951
 855  509.5942
 856  586.4886
 857  624.0661
 858  597.536
 859  552.9423
 860  457.8834
 861  370.7295
 862  416.5452
 863  475.9374
 864  614.1641
 865  612.9584
 866  641.0101
 867  686.4846
 868  670.5992
 869  639.8611
 870  603.6348
 871  623.8977
 872  589.6595
 873  582.5878
 874  513.2411
 875  539.6631
 876  560.4205
 877  692.9527
 878  644.5384
 879  829.7902
 880  724.383
 881  652.129
 882  587.7989
 883  656.7188
 884  752.3404
 885  728.9324
 886  620.8427
 887  689.1172
 888  787.9369
 889  838.9848
 890  757.7524
 891  820.9306
 892  924.0173
 893  939.3734
 894  844.6514
 895  805.752
 896  721.0416
 897  771.1732
 898  735.4059
 899  813.0546
 900  800.4503
 901  734.3749
 902  572.2137
 903  490.2405
 904  517.3469
 905  601.6412
 906  623.3619
 907  578.2055
 908  496.5834
 909  581.942
 910  636.3483
 911  731.166
 912  738.5026
 913  729.9314
 914  710.1998
 915  701.795
 916  652.6601
 917  556.0937
 918  496.4921
 919  512.2122
 920  518.8837
 921  481.6939
 922  495.3543
 923  472.7731
 924  625.1943
 925  585.3106
 926  691.0228
 927  707.3412
 928  732.5012
 929  644.3566
 930  614.5721
 931  590.678
 932  557.5638
 933  456.9615
 934  446.3537
 935  529.0173
 936  556.3688
 937  474.5579
 938  324.6537
 939  383.8169
 940  439.2056
 941  422.378
 942  464.8737
 943  571.2236
 944  672.4751
 945  687.9407
 946  603.1782
 947  561.3378
 948  485.2143
 949  505.9457
 950  568.5637
 951  594.7059
 952  565.8079
 953  557.9177
 954  439.3849
 955  450.751
 956  525.2713
 957  635.3951
 958  590.1301
 959  666.373
 960  734.4568
 961  791.2125
 962  659.9756
 963  598.0723
 964  421.3175
 965  373.6378
 966  395.6753
 967  469.3828
 968  517.9479
 969  449.0229
 970  558.0142
 971  676.8179
 972  647.7574
 973  516.1549
 974  516.3028
 975  663.3053
 976  801.0772
 977  790.1578
 978  759.9609
 979  667.9417
 980  701.5659
 981  688.6965
 982  685.5082
 983  695.1591
 984  717.6733
 985  707.7241
 986  654.2126
 987  725.1457
 988  700.2026
 989  769.3255
 990  826.3348
 991  858.0093
 992  735.1661
 993  627.8041
 994  553.3748
 995  640.5873
 996  664.6047
 997  806.2186
 998  812.6041
 999  697.0883
1000  590.1182
1001  389.4085
1002  337.0304
1003  240.9365
1004  295.9624
1005  333.2785
1006  316.2676
1007  346.8467
1008  411.0603
1009  505.1623
1010  458.2253
1011  372.439
1012  268.641
1013  229.7891
1014  227.3635
1015  307.1108
1016  378.9716
1017  411.8871
1018  327.7216
1019  268.814
1020  393.6484
1021  554.6572
1022  703.5071
1023  709.0705
