# Input file       =  1210839012.112088_cleaned.dat
# Candidate        =  PSR_0332+5434
# Telescope        =  AR
# Epoch_topo       =  58258.340637871392
# Epoch_bary       =  N/A
# T_sample         =  0.002
# Data Folded      =  7340032
# Data Avg         =  0.0559801566151442
# Data StdDev      =  1.00003272102084 
# Profile Bins     =  512
# Profile Avg      =  802.548268331432 
# Profile StdDev   =  119.736954163944 
# Reduced chi-sqr  =  1.221
# Prob(Noise)      <  0.000446   (~3.3 sigma)
# P_topo (ms)      =  714.528358307089  +/- 0.000191
# P'_topo (s/s)    =  -0                +/- 1.01e-10
# P''_topo (s/s^2) =  0                 +/- 4.45e-14
# P_bary (ms)      =  N/A
# P'_bary (s/s)    =  N/A
# P''_bary (s/s^2) =  N/A
# P_orb (s)        =  N/A
# asin(i)/c (s)    =  N/A
# eccentricity     =  N/A
# w (rad)          =  N/A
# T_peri           =  N/A
######################################################
   0  1412.405
   1  1271.246
   2  1166.871
   3  1020.219
   4  835.8014
   5  762.8474
   6  806.672
   7  718.8688
   8  747.9146
   9  844.2976
  10  824.5286
  11  835.1923
  12  911.1095
  13  1025.722
  14  1031.371
  15  998.4813
  16  903.5303
  17  888.0621
  18  840.3034
  19  914.8898
  20  966.201
  21  874.2421
  22  847.8542
  23  887.006
  24  860.8319
  25  862.1094
  26  882.6691
  27  978.9183
  28  969.3608
  29  884.1881
  30  807.5867
  31  841.2777
  32  810.9648
  33  776.571
  34  725.0999
  35  715.6586
  36  686.9178
  37  688.9906
  38  772.5523
  39  823.5164
  40  812.5973
  41  755.7844
  42  772.1989
  43  856.1795
  44  800.6106
  45  818.0164
  46  822.4074
  47  787.5577
  48  800.1165
  49  879.0695
  50  875.1866
  51  887.6403
  52  892.7431
  53  818.8311
  54  711.2413
  55  872.5413
  56  827.7729
  57  807.4229
  58  848.0801
  59  879.9238
  60  856.3801
  61  935.8005
  62  930.9015
  63  955.4811
  64  882.8607
  65  833.2474
  66  898.5279
  67  893.6724
  68  860.127
  69  856.4764
  70  781.3197
  71  759.375
  72  679.4406
  73  693.7902
  74  801.3143
  75  817.5142
  76  834.3866
  77  708.7977
  78  679.9799
  79  772.9386
  80  745.4519
  81  741.6677
  82  767.3925
  83  785.3982
  84  837.5086
  85  810.9545
  86  772.0795
  87  815.1174
  88  869.2162
  89  824.8994
  90  762.2103
  91  765.1275
  92  938.7079
  93  923.4893
  94  860.4008
  95  806.4064
  96  897.2129
  97  943.9939
  98  1001.856
  99  928.079
 100  829.1757
 101  886.7189
 102  870.6368
 103  833.2037
 104  927.7283
 105  882.6249
 106  879.4459
 107  947.1776
 108  827.2449
 109  798.9875
 110  930.0308
 111  920.8196
 112  778.8945
 113  867.6769
 114  971.5568
 115  896.0157
 116  739.3414
 117  745.6761
 118  768.0847
 119  822.7615
 120  928.0085
 121  919.9838
 122  896.633
 123  829.8977
 124  837.8815
 125  847.2707
 126  787.6292
 127  811.0822
 128  854.5623
 129  837.4264
 130  812.945
 131  877.0857
 132  758.763
 133  791.3339
 134  867.7068
 135  718.9935
 136  701.1157
 137  675.5881
 138  717.5258
 139  813.0847
 140  880.5409
 141  866.9952
 142  833.3001
 143  654.3971
 144  740.1494
 145  817.1914
 146  836.4582
 147  716.3554
 148  711.4597
 149  813.6337
 150  838.6038
 151  773.2091
 152  770.7012
 153  761.6792
 154  748.4292
 155  760.4362
 156  693.0081
 157  715.3697
 158  718.4927
 159  601.2065
 160  660.1799
 161  643.0164
 162  640.0203
 163  720.5862
 164  699.5042
 165  616.5082
 166  594.3176
 167  550.3856
 168  632.4967
 169  654.8965
 170  672.9996
 171  594.3454
 172  640.6302
 173  648.4064
 174  721.0367
 175  786.4504
 176  796.1124
 177  731.2014
 178  665.3286
 179  731.7216
 180  746.9586
 181  887.8909
 182  852.2446
 183  841.0344
 184  770.4046
 185  757.7358
 186  811.9369
 187  716.5807
 188  896.3958
 189  939.4136
 190  906.8802
 191  901.009
 192  949.7018
 193  903.6801
 194  799.3311
 195  878.0318
 196  937.4809
 197  893.347
 198  921.2393
 199  953.6111
 200  857.3491
 201  745.6089
 202  713.5845
 203  762.2768
 204  697.4091
 205  746.8999
 206  759.8582
 207  816.1347
 208  754.0354
 209  716.8307
 210  739.5675
 211  828.6268
 212  742.4136
 213  631.9854
 214  647.2998
 215  794.1951
 216  910.098
 217  826.0126
 218  758.1874
 219  768.7821
 220  804.7759
 221  799.5766
 222  745.9163
 223  816.0685
 224  835.7001
 225  837.225
 226  806.1846
 227  817.3276
 228  739.6011
 229  767.7109
 230  758.8219
 231  811.2684
 232  888.728
 233  871.8515
 234  849.5929
 235  774.6023
 236  743.1755
 237  797.5941
 238  704.5226
 239  650.9642
 240  784.1469
 241  825.0943
 242  727.2621
 243  798.5935
 244  814.6766
 245  813.2122
 246  772.6951
 247  802.0468
 248  832.1811
 249  826.8221
 250  795.1872
 251  807.084
 252  746.4403
 253  767.0112
 254  852.0248
 255  849.4946
 256  865.3854
 257  769.5224
 258  892.9623
 259  865.4969
 260  724.934
 261  771.9623
 262  837.767
 263  849.6077
 264  861.1835
 265  777.9601
 266  705.5187
 267  822.8901
 268  809.7471
 269  796.8058
 270  801.561
 271  797.3504
 272  745.6105
 273  765.0306
 274  752.9659
 275  775.7573
 276  852.8122
 277  842.1177
 278  772.7872
 279  743.1672
 280  811.5626
 281  816.5695
 282  859.4066
 283  899.6342
 284  880.5011
 285  870.1677
 286  801.7807
 287  800.2194
 288  742.3952
 289  770.0731
 290  857.3536
 291  854.6777
 292  816.495
 293  705.0206
 294  823.6359
 295  863.1669
 296  780.0262
 297  784.9507
 298  791.2696
 299  743.0654
 300  795.5022
 301  786.3665
 302  692.3212
 303  774.1945
 304  755.5817
 305  762.1976
 306  816.5742
 307  871.179
 308  801.7609
 309  827.3033
 310  775.8909
 311  788.778
 312  808.8887
 313  865.2217
 314  855.0888
 315  926.2323
 316  910.7128
 317  840.412
 318  833.6664
 319  817.1699
 320  876.5752
 321  955.1113
 322  954.8265
 323  879.8406
 324  908.5267
 325  892.7528
 326  855.1546
 327  937.5345
 328  918.8593
 329  904.6121
 330  847.8303
 331  808.7008
 332  771.0984
 333  841.3904
 334  808.0284
 335  774.7863
 336  797.8416
 337  830.944
 338  899.7947
 339  808.4493
 340  784.9857
 341  815.5609
 342  830.1533
 343  868.8904
 344  825.6333
 345  828.0038
 346  798.8503
 347  785.9673
 348  781.0805
 349  828.1439
 350  748.0086
 351  724.9619
 352  683.1251
 353  741.3833
 354  732.3315
 355  814.2756
 356  880.6771
 357  854.8766
 358  834.7689
 359  885.5107
 360  812.051
 361  850.056
 362  912.8894
 363  955.3069
 364  891.2099
 365  829.0843
 366  720.9057
 367  748.6509
 368  748.0357
 369  843.9503
 370  833.6028
 371  749.1921
 372  778.5376
 373  843.2676
 374  813.4825
 375  838.029
 376  773.3855
 377  821.3774
 378  820.1066
 379  791.1972
 380  664.705
 381  781.1581
 382  847.8264
 383  756.2302
 384  722.1376
 385  699.373
 386  719.7728
 387  819.2385
 388  809.5118
 389  755.5372
 390  758.6026
 391  873.3412
 392  901.8162
 393  805.3116
 394  898.4451
 395  836.5613
 396  834.748
 397  785.1152
 398  742.5797
 399  797.62
 400  796.3474
 401  829.2671
 402  885.4543
 403  773.5908
 404  728.0394
 405  787.7645
 406  815.6597
 407  742.0689
 408  729.4704
 409  813.7778
 410  734.2074
 411  812.6468
 412  820.4958
 413  749.7575
 414  645.6086
 415  618.9055
 416  733.4802
 417  649.9724
 418  626.9916
 419  630.2304
 420  633.8275
 421  597.0842
 422  663.7886
 423  676.1851
 424  702.6329
 425  667.7601
 426  613.5217
 427  684.6512
 428  727.4354
 429  687.3469
 430  765.2501
 431  775.0401
 432  759.6204
 433  783.106
 434  805.7463
 435  915.5577
 436  821.3447
 437  821.6234
 438  798.8202
 439  802.2611
 440  841.7516
 441  730.6882
 442  758.2493
 443  801.7139
 444  757.9675
 445  753.0746
 446  716.7795
 447  736.8134
 448  822.9788
 449  754.6743
 450  709.3769
 451  732.9498
 452  785.71
 453  700.7531
 454  700.0669
 455  730.9184
 456  763.8079
 457  782.4537
 458  756.1613
 459  660.602
 460  723.1641
 461  791.2397
 462  714.7249
 463  638.444
 464  681.1432
 465  730.4367
 466  629.3337
 467  587.5156
 468  682.4412
 469  709.4943
 470  639.2062
 471  693.5906
 472  567.5904
 473  711.5422
 474  800.6819
 475  750.5787
 476  690.8526
 477  832.1014
 478  798.1477
 479  682.8817
 480  708.1576
 481  751.9546
 482  704.5698
 483  696.9672
 484  771.044
 485  755.6704
 486  773.2106
 487  831.5204
 488  754.2581
 489  824.7659
 490  845.9102
 491  854.2666
 492  905.0032
 493  827.6385
 494  792.5435
 495  737.6187
 496  833.9417
 497  805.9534
 498  746.3602
 499  859.5153
 500  749.0298
 501  684.7483
 502  715.5535
 503  792.2088
 504  805.1561
 505  817.9883
 506  737.0064
 507  738.0417
 508  985.5862
 509  1145.247
 510  1247.174
 511  1389.85
