# Input file       =  1210494378.115824_cleaned.dat
# Candidate        =  PSR_0332+5434
# Telescope        =  AR
# Epoch_topo       =  58254.351818470182
# Epoch_bary       =  N/A
# T_sample         =  0.002
# Data Folded      =  7340032
# Data Avg         =  0.0978668060010285
# Data StdDev      =  4.4116441400092  
# Profile Bins     =  512
# Profile Avg      =  1403.10495011167 
# Profile StdDev   =  528.219548297068 
# Reduced chi-sqr  =  1.287
# Prob(Noise)      <  1.18e-05   (~4.2 sigma)
# P_topo (ms)      =  714.532273001691  +/- 0.000878
# P'_topo (s/s)    =  -0                +/- 4.63e-10
# P''_topo (s/s^2) =  0                 +/- 2.04e-13
# P_bary (ms)      =  N/A
# P'_bary (s/s)    =  N/A
# P''_bary (s/s^2) =  N/A
# P_orb (s)        =  N/A
# asin(i)/c (s)    =  N/A
# eccentricity     =  N/A
# w (rad)          =  N/A
# T_peri           =  N/A
######################################################
   0  1230.814
   1  1608.066
   2  1367.609
   3  1617.01
   4  1420.117
   5  1338.113
   6  1319.987
   7  1663.364
   8  1687.59
   9  1735.559
  10  1719.46
  11  1610.955
  12  1541.33
  13  1760.344
  14  1586.514
  15  1371.459
  16  1367.365
  17  1531.474
  18  1398.149
  19  1424.561
  20  1833.931
  21  1926.479
  22  1851.9
  23  1715.963
  24  1912.034
  25  1852.032
  26  1439.377
  27  1391.685
  28  1773.023
  29  1584.149
  30  1432.498
  31  1613.67
  32  1694.365
  33  1693.594
  34  1947.851
  35  1793.171
  36  1652.636
  37  1811.302
  38  1973.556
  39  2173.299
  40  1936.16
  41  2131.707
  42  2007.788
  43  1940.557
  44  1948.711
  45  1785.73
  46  1681.383
  47  1822.018
  48  1904.28
  49  2065.783
  50  2055.354
  51  2175.495
  52  1955.271
  53  1909.564
  54  2126.394
  55  2227.548
  56  2183.264
  57  2336.664
  58  2035.85
  59  2013.463
  60  1805.99
  61  1709.983
  62  1424.397
  63  1631.217
  64  1798.165
  65  1713.447
  66  1705.937
  67  1674.968
  68  1781.597
  69  1989.28
  70  1669.178
  71  1510.497
  72  1634.422
  73  1792.065
  74  1612.137
  75  1658.449
  76  1585.044
  77  1617.209
  78  1490.856
  79  1322.505
  80  1493.796
  81  1721.292
  82  1497.499
  83  1505.508
  84  1038.18
  85  1191.857
  86  1552.85
  87  1442.623
  88  1811.688
  89  1545.306
  90  1151.824
  91  1367.13
  92  1374.881
  93  1225.89
  94  1575.035
  95  1364.601
  96  1158.088
  97  1044
  98  1229.739
  99  1357.362
 100  1185.655
 101  1163.491
 102  981.5135
 103  865.0475
 104  904.7908
 105  831.3205
 106  664.3163
 107  310.8681
 108  329.6385
 109  231.1099
 110  446.6571
 111  775.7559
 112  876.0106
 113  775.7352
 114  1022.556
 115  963.1267
 116  858.4764
 117  851.1802
 118  1016.83
 119  1044.013
 120  811.4261
 121  821.8508
 122  555.2463
 123  480.3005
 124  747.9492
 125  589.5461
 126  452.3773
 127  660.4366
 128  529.6555
 129  944.3925
 130  1322.1
 131  1022.362
 132  1156.284
 133  1149.488
 134  1253.543
 135  1048.169
 136  842.1718
 137  1020.658
 138  700.4586
 139  520.6724
 140  600.1346
 141  720.8973
 142  707.5203
 143  1119.869
 144  1224.823
 145  1238.422
 146  626.1521
 147  708.0818
 148  1039.321
 149  828.4291
 150  821.7318
 151  872.3914
 152  879.0199
 153  1077.892
 154  737.0582
 155  583.8947
 156  938.7751
 157  1105.841
 158  1048.838
 159  1002.714
 160  1066.646
 161  1081.55
 162  927.5881
 163  1289.287
 164  1416.061
 165  1257.681
 166  999.0548
 167  1190.677
 168  952.1619
 169  925.7748
 170  1085.89
 171  1233.537
 172  1155.171
 173  1038.177
 174  1265.506
 175  1204.495
 176  743.6778
 177  870.7526
 178  1010.22
 179  1185.711
 180  1134.743
 181  1070.281
 182  1180.315
 183  1189.061
 184  912.9738
 185  729.9679
 186  1414.542
 187  1445.868
 188  1219.612
 189  1012.166
 190  857.1172
 191  969.8438
 192  937.601
 193  961.113
 194  718.8999
 195  738.0648
 196  1006.213
 197  1131.696
 198  1186.736
 199  872.0344
 200  879.3201
 201  1071.003
 202  1335.073
 203  1218.351
 204  1192.635
 205  845.5401
 206  810.6292
 207  996.0573
 208  1181.018
 209  1164.048
 210  834.0433
 211  871.5753
 212  873.9066
 213  1186.457
 214  1387.195
 215  1315.783
 216  1365.203
 217  1441.953
 218  1248.035
 219  1319.292
 220  1246.359
 221  1174.068
 222  1368.448
 223  1320.432
 224  1371.285
 225  1606.12
 226  1553.334
 227  1360.948
 228  1230.111
 229  1189.172
 230  1387.374
 231  1378.193
 232  1492.974
 233  1452.093
 234  1465.679
 235  1487.598
 236  1352.475
 237  1349.993
 238  1597.626
 239  1695.713
 240  1556.512
 241  1718.846
 242  1881.658
 243  1465.988
 244  1556.806
 245  1909.731
 246  1759.785
 247  1832.108
 248  1903.441
 249  1801.914
 250  1322.475
 251  1501.687
 252  1436.683
 253  1376.714
 254  1432.534
 255  1422.987
 256  1388.906
 257  1416.057
 258  1319.647
 259  1286.253
 260  1628.212
 261  1633.461
 262  1311.89
 263  1132.243
 264  1327.833
 265  1150.567
 266  1085.721
 267  1219.16
 268  1273.686
 269  1268.653
 270  1090.031
 271  1250.217
 272  1511.407
 273  1515.129
 274  1331.461
 275  1180.113
 276  1043.765
 277  1184.569
 278  1568.728
 279  1669.288
 280  1453.757
 281  1563.866
 282  1516.875
 283  1477.528
 284  1219.249
 285  1193.754
 286  1165.513
 287  1271.797
 288  1394.413
 289  1474.761
 290  1574.279
 291  1596.651
 292  1377.188
 293  1489.756
 294  1619.21
 295  1949.765
 296  2140.848
 297  2751.951
 298  3364.33
 299  3864.593
 300  3937.03
 301  3838.889
 302  3046.413
 303  2285.263
 304  1611.263
 305  1650.123
 306  1891.683
 307  1374.61
 308  1219.068
 309  1359.507
 310  1227.364
 311  1324.197
 312  1327.167
 313  1532.533
 314  1756.724
 315  1517.795
 316  1516.294
 317  1350.944
 318  1168.868
 319  1052.545
 320  998.0795
 321  1177.124
 322  1275.635
 323  1012.933
 324  848.8688
 325  1207.052
 326  1473.03
 327  1394.947
 328  1183.63
 329  946.2236
 330  969.7818
 331  1037.869
 332  1097.493
 333  1052.742
 334  1112.355
 335  1271.862
 336  1061.95
 337  705.3689
 338  299.451
 339  491.6485
 340  947.1658
 341  989.2927
 342  951.525
 343  1142.6
 344  774.0211
 345  703.921
 346  872.7271
 347  983.7256
 348  1302.946
 349  1095.189
 350  991.9921
 351  775.4294
 352  861.2649
 353  1077.621
 354  865.2349
 355  923.3552
 356  1190.231
 357  1465.385
 358  1620.107
 359  1397.538
 360  1403.588
 361  1185.298
 362  958.8832
 363  1288.469
 364  1480.816
 365  1423.079
 366  1459.426
 367  1453.281
 368  1624.643
 369  1230.905
 370  1104.038
 371  987.2573
 372  1078.725
 373  1414.652
 374  1594.19
 375  1530.222
 376  1156.724
 377  1387.906
 378  1734.129
 379  1505.009
 380  1771.565
 381  2062.315
 382  1830.732
 383  1536.586
 384  1336.106
 385  1509.336
 386  1509.498
 387  1319.537
 388  1574.063
 389  1914.071
 390  1769.794
 391  1805.322
 392  1714.104
 393  1823.979
 394  1836.527
 395  1758.111
 396  1799.599
 397  1924.36
 398  1831.651
 399  1910.467
 400  1793.53
 401  1683.663
 402  1751.888
 403  1766.516
 404  1704.869
 405  1536.46
 406  1612.154
 407  1831.69
 408  1580.116
 409  1224.579
 410  1154.491
 411  1549.737
 412  1124.019
 413  1183.358
 414  1367.181
 415  1358.781
 416  1385.273
 417  1552.628
 418  1229.607
 419  1139.433
 420  1384.689
 421  1716.17
 422  1734.849
 423  1624.705
 424  1783.131
 425  1954.495
 426  1736.172
 427  1718.126
 428  1807.484
 429  1780.666
 430  1649.991
 431  1805.292
 432  1979.698
 433  1826.261
 434  1974.303
 435  2107.411
 436  1735.37
 437  1731.453
 438  1640.88
 439  1794.059
 440  1593.871
 441  1589.435
 442  1628.217
 443  1419.87
 444  1562.053
 445  1749.872
 446  1773.014
 447  1711.111
 448  1713.103
 449  2000.97
 450  1748.645
 451  1430.76
 452  1514.632
 453  1882.743
 454  1449.145
 455  1413.824
 456  1812.345
 457  1961.152
 458  1800.259
 459  1714.21
 460  1607.877
 461  1582.156
 462  1731.071
 463  1566.207
 464  1448.697
 465  1442.081
 466  1611.164
 467  1510.622
 468  1370.771
 469  1568.396
 470  1671.319
 471  1702.861
 472  1588.239
 473  1712.048
 474  1607.775
 475  1410.025
 476  1418.845
 477  1782.059
 478  1549.383
 479  1584.531
 480  1616.96
 481  1447.915
 482  1226.773
 483  1595.12
 484  1851.095
 485  1357.33
 486  1434.993
 487  1465.886
 488  1592.211
 489  1435.483
 490  1717.369
 491  1757.591
 492  1449.299
 493  1392.182
 494  1355.857
 495  1562.173
 496  1495.625
 497  1361.193
 498  1189.349
 499  1449.056
 500  1369.575
 501  1374.49
 502  1485.292
 503  1584.879
 504  1502.241
 505  1412.131
 506  1369.465
 507  1233.441
 508  1217.82
 509  1400.246
 510  1229.671
 511  1102.582
