# Input file       =  1210235853.118703_cleaned.dat
# Candidate        =  PSR_0332+5434
# Telescope        =  AR
# Epoch_topo       =  58251.359631003506
# Epoch_bary       =  N/A
# T_sample         =  0.002
# Data Folded      =  7340032
# Data Avg         =  -0.0443260948473635
# Data StdDev      =  1.00018033812217 
# Profile Bins     =  512
# Profile Avg      =  -635.769061997299
# Profile StdDev   =  119.754628807708 
# Reduced chi-sqr  =  0.894
# Prob(Noise)      <  0.958   (~0.0 sigma)
# P_topo (ms)      =  714.535184267206  +/- 0.000529
# P'_topo (s/s)    =  -0                +/- 2.79e-10
# P''_topo (s/s^2) =  0                 +/- 1.23e-13
# P_bary (ms)      =  N/A
# P'_bary (s/s)    =  N/A
# P''_bary (s/s^2) =  N/A
# P_orb (s)        =  N/A
# asin(i)/c (s)    =  N/A
# eccentricity     =  N/A
# w (rad)          =  N/A
# T_peri           =  N/A
######################################################
   0  -597.1077
   1  -646.9255
   2  -662.9129
   3  -621.7474
   4  -608.21
   5  -602.6963
   6  -648.3474
   7  -665.2703
   8  -654.183
   9  -610.4068
  10  -678.5386
  11  -740.7716
  12  -692.1859
  13  -673.2401
  14  -592.838
  15  -631.6645
  16  -685.3788
  17  -717.2069
  18  -723.9936
  19  -722.645
  20  -727.6404
  21  -723.6318
  22  -696.6603
  23  -694.5352
  24  -676.5962
  25  -751.9696
  26  -757.9967
  27  -745.8752
  28  -771.7456
  29  -683.3805
  30  -647.9536
  31  -718.4555
  32  -717.1459
  33  -683.121
  34  -606.1106
  35  -599.3331
  36  -686.1019
  37  -775.8776
  38  -733.8372
  39  -680.8838
  40  -699.0422
  41  -662.3022
  42  -698.5914
  43  -636.2593
  44  -541.7427
  45  -588.4244
  46  -601.272
  47  -620.8454
  48  -577.3896
  49  -668.4035
  50  -635.5992
  51  -558.1109
  52  -559.4638
  53  -597.0347
  54  -541.1368
  55  -549.0403
  56  -547.0272
  57  -586.9689
  58  -574.0659
  59  -627.5108
  60  -562.1178
  61  -518.2855
  62  -596.606
  63  -637.0058
  64  -541.2703
  65  -636.0137
  66  -654.5392
  67  -638.5034
  68  -629.7095
  69  -594.8809
  70  -559.585
  71  -594.9106
  72  -576.713
  73  -558.2515
  74  -551.1414
  75  -520.3836
  76  -455.9897
  77  -479.4224
  78  -510.2827
  79  -514.0704
  80  -480.1143
  81  -516.7348
  82  -602.7273
  83  -538.281
  84  -478.9362
  85  -589.1652
  86  -515.3376
  87  -544.8601
  88  -569.4728
  89  -594.269
  90  -600.5706
  91  -497.4008
  92  -490.9569
  93  -509.028
  94  -479.04
  95  -474.1175
  96  -494.8219
  97  -470.8757
  98  -537.205
  99  -472.9565
 100  -517.5795
 101  -558.6061
 102  -559.5618
 103  -527.2899
 104  -499.6071
 105  -575.0337
 106  -588.7424
 107  -540.6778
 108  -535.7637
 109  -617.218
 110  -566.7793
 111  -542.6863
 112  -630.0892
 113  -677.0493
 114  -646.0191
 115  -655.5318
 116  -673.9557
 117  -639.8378
 118  -619.9248
 119  -648.9975
 120  -599.4766
 121  -653.5367
 122  -679.7543
 123  -628.7735
 124  -593.5696
 125  -595.0105
 126  -692.9959
 127  -664.1283
 128  -650.2516
 129  -680.0836
 130  -662.5493
 131  -610.9851
 132  -642.7823
 133  -701.2162
 134  -722.8377
 135  -741.5401
 136  -624.5533
 137  -597.679
 138  -596.8264
 139  -668.5353
 140  -695.0351
 141  -668.0799
 142  -685.7542
 143  -729.7432
 144  -735.3221
 145  -710.7659
 146  -723.584
 147  -801.5501
 148  -773.6962
 149  -825.5518
 150  -764.8453
 151  -750.6253
 152  -676.9019
 153  -687.5753
 154  -790.5472
 155  -738.5928
 156  -754.2259
 157  -737.1168
 158  -717.2164
 159  -719.9762
 160  -750.5801
 161  -702.7202
 162  -764.4337
 163  -684.0682
 164  -706.217
 165  -755.2558
 166  -739.5602
 167  -697.7275
 168  -712.6289
 169  -727.2449
 170  -761.9612
 171  -787.8538
 172  -699.5168
 173  -638.9658
 174  -651.7557
 175  -689.439
 176  -680.1536
 177  -728.2349
 178  -725.8238
 179  -709.5204
 180  -708.2438
 181  -685.298
 182  -670.7884
 183  -747.0169
 184  -698.0474
 185  -631.3484
 186  -661.2699
 187  -670.5262
 188  -740.6332
 189  -668.8877
 190  -676.5121
 191  -556.9208
 192  -618.3612
 193  -699.8527
 194  -656.072
 195  -622.466
 196  -640.3797
 197  -608.523
 198  -582.6851
 199  -651.4223
 200  -615.9238
 201  -624.3509
 202  -636.3149
 203  -639.0719
 204  -651.5922
 205  -599.9649
 206  -548.2919
 207  -570.0339
 208  -561.7535
 209  -547.626
 210  -549.9811
 211  -550.8991
 212  -580.6638
 213  -642.0353
 214  -663.8117
 215  -593.0977
 216  -566.8715
 217  -529.0953
 218  -565.5838
 219  -532.7896
 220  -554.2302
 221  -562.6859
 222  -604.0577
 223  -608.8915
 224  -600.095
 225  -660.0928
 226  -692.9609
 227  -677.3654
 228  -625.7321
 229  -676.137
 230  -673.3364
 231  -660.3005
 232  -611.6152
 233  -635.4824
 234  -661.3574
 235  -620.6398
 236  -712.5699
 237  -705.3911
 238  -643.4708
 239  -632.3735
 240  -547.3539
 241  -570.7341
 242  -713.2451
 243  -705.832
 244  -723.1761
 245  -655.7015
 246  -639.6221
 247  -673.9635
 248  -662.0909
 249  -648.3063
 250  -644.4586
 251  -713.3786
 252  -623.9214
 253  -596.7808
 254  -524.595
 255  -583.3535
 256  -654.8743
 257  -683.3843
 258  -589.9129
 259  -572.9036
 260  -599.6656
 261  -588.4733
 262  -611.1236
 263  -537.5116
 264  -562.009
 265  -559.7349
 266  -632.0367
 267  -658.6412
 268  -612.4078
 269  -591.7877
 270  -650.8667
 271  -658.5811
 272  -686.2659
 273  -641.4829
 274  -637.4774
 275  -715.7476
 276  -651.0645
 277  -674.1162
 278  -710.9714
 279  -730.4216
 280  -682.3594
 281  -701.655
 282  -744.0207
 283  -665.9289
 284  -641.7197
 285  -593.2203
 286  -634.7021
 287  -588.2973
 288  -626.9872
 289  -624.4554
 290  -598.244
 291  -600.3486
 292  -653.2653
 293  -688.0511
 294  -672.3436
 295  -699.1881
 296  -672.5408
 297  -578.2759
 298  -618.2545
 299  -631.4611
 300  -566.3555
 301  -580.7192
 302  -629.1012
 303  -587.2343
 304  -616.3298
 305  -649.6381
 306  -673.1578
 307  -646.2242
 308  -617.3823
 309  -603.1056
 310  -634.5083
 311  -686.6585
 312  -671.2985
 313  -681.4531
 314  -644.1644
 315  -687.9026
 316  -782.4494
 317  -730.4932
 318  -748.7164
 319  -689.4321
 320  -634.634
 321  -671.2072
 322  -693.657
 323  -717.5005
 324  -700.9244
 325  -703.1661
 326  -691.7936
 327  -662.0103
 328  -710.5773
 329  -790.8701
 330  -740.3642
 331  -620.1125
 332  -646.4535
 333  -638.7181
 334  -580.5169
 335  -646.9603
 336  -685.3866
 337  -630.3915
 338  -599.95
 339  -524.0311
 340  -512.7002
 341  -483.3488
 342  -557.1905
 343  -498.6524
 344  -507.1566
 345  -426.9542
 346  -520.2939
 347  -547.2277
 348  -538.3353
 349  -558.091
 350  -580.9277
 351  -622.775
 352  -623.3409
 353  -578.5529
 354  -546.8952
 355  -717.4332
 356  -679.7298
 357  -753.2825
 358  -780.9139
 359  -682.476
 360  -659.5045
 361  -643.6025
 362  -716.9767
 363  -737.5961
 364  -735.1981
 365  -743.3456
 366  -624.2167
 367  -601.8556
 368  -690.1749
 369  -747.5426
 370  -719.0678
 371  -692.4089
 372  -723.2008
 373  -686.0796
 374  -696.5375
 375  -775.4829
 376  -721.4277
 377  -726.5941
 378  -714.8299
 379  -663.064
 380  -678.6194
 381  -675.2158
 382  -625.3019
 383  -615.8746
 384  -640.7441
 385  -666.2221
 386  -639.679
 387  -606.5945
 388  -635.17
 389  -657.6087
 390  -643.197
 391  -611.7939
 392  -658.355
 393  -665.3672
 394  -698.462
 395  -643.9095
 396  -681.5882
 397  -660.2913
 398  -603.7531
 399  -718.4926
 400  -760.6158
 401  -742.9164
 402  -644.2883
 403  -605.637
 404  -708.4064
 405  -704.6361
 406  -735.5955
 407  -791.4764
 408  -755.9521
 409  -724.7827
 410  -741.406
 411  -732.2073
 412  -729.2244
 413  -643.812
 414  -714.5143
 415  -703.8229
 416  -651.2745
 417  -697.7951
 418  -713.8596
 419  -696.9357
 420  -668.1791
 421  -667.2568
 422  -683.5361
 423  -699.1696
 424  -679.8269
 425  -677.9924
 426  -696.956
 427  -645.4227
 428  -664.0306
 429  -701.9154
 430  -719.7936
 431  -664.3867
 432  -698.1913
 433  -709.3578
 434  -680.6225
 435  -639.7833
 436  -594.0072
 437  -441.3374
 438  -417.728
 439  -350.9329
 440  -185.6984
 441  -137.0322
 442  -238.0695
 443  -290.518
 444  -482.4582
 445  -672.3447
 446  -689.4927
 447  -569.2688
 448  -629.7865
 449  -717.4165
 450  -706.2495
 451  -719.1014
 452  -717.0825
 453  -658.2759
 454  -615.3518
 455  -608.4247
 456  -685.4849
 457  -665.7048
 458  -612.2642
 459  -620.1631
 460  -613.1983
 461  -634.5823
 462  -635.8818
 463  -569.8643
 464  -512.6125
 465  -517.0148
 466  -565.5891
 467  -553.9645
 468  -568.9736
 469  -632.311
 470  -641.4799
 471  -617.9345
 472  -536.3279
 473  -566.1011
 474  -640.1311
 475  -608.6848
 476  -530.5782
 477  -523.9741
 478  -561.4354
 479  -539.2558
 480  -557.4498
 481  -514.6159
 482  -553.8828
 483  -618.8351
 484  -510.7186
 485  -546.9974
 486  -529.1661
 487  -601.4182
 488  -657.4121
 489  -617.0644
 490  -648.3662
 491  -675.9756
 492  -660.5693
 493  -598.9539
 494  -612.826
 495  -659.5078
 496  -674.8107
 497  -672.2589
 498  -712.1962
 499  -684.3899
 500  -564.7559
 501  -548.5934
 502  -562.8981
 503  -597.5792
 504  -500.6658
 505  -558.4185
 506  -653.5104
 507  -728.7182
 508  -623.113
 509  -563.7723
 510  -698.5613
 511  -661.92
