# Input file       =  1210839012.112088_cleaned.dat
# Candidate        =  PSR_0332+5434
# Telescope        =  AR
# Epoch_topo       =  58258.340637871392
# Epoch_bary       =  N/A
# T_sample         =  0.002
# Data Folded      =  7340032
# Data Avg         =  0.255232830735622
# Data StdDev      =  4.35868899128191 
# Profile Bins     =  1024
# Profile Avg      =  1829.56475265728 
# Profile StdDev   =  369.024227622621 
# Reduced chi-sqr  =  1.166
# Prob(Noise)      <  0.000172   (~3.6 sigma)
# P_topo (ms)      =  714.528358851179  +/- 0.000301
# P'_topo (s/s)    =  -0                +/- 1.59e-10
# P''_topo (s/s^2) =  0                 +/- 7.02e-14
# P_bary (ms)      =  N/A
# P'_bary (s/s)    =  N/A
# P''_bary (s/s^2) =  N/A
# P_orb (s)        =  N/A
# asin(i)/c (s)    =  N/A
# eccentricity     =  N/A
# w (rad)          =  N/A
# T_peri           =  N/A
######################################################
   0  1724.12
   1  1591.797
   2  1490.786
   3  1458.651
   4  1527.963
   5  1700.19
   6  1819.448
   7  1985.24
   8  2008.191
   9  1933.417
  10  1848.18
  11  1797.315
  12  1769.095
  13  1736.936
  14  1810.392
  15  1813.18
  16  1836.921
  17  1905.343
  18  1827.469
  19  1778.851
  20  1675.086
  21  1859.104
  22  1842.56
  23  1880.377
  24  1868.932
  25  1907.08
  26  1870.754
  27  1722.983
  28  1872.017
  29  1927.029
  30  1855.351
  31  1726.377
  32  1751.28
  33  1842.284
  34  1751.178
  35  1740.208
  36  1790.136
  37  1819.288
  38  1833.933
  39  1895.873
  40  2031.87
  41  2063.314
  42  2050.017
  43  2003.801
  44  1987.274
  45  1942.721
  46  1854.832
  47  1836.335
  48  1768.214
  49  1817.375
  50  1868.164
  51  1771.347
  52  1655.656
  53  1538.888
  54  1608.405
  55  1750.709
  56  1874.246
  57  1983.855
  58  1977.372
  59  1798.376
  60  1773.431
  61  1796.022
  62  1870.571
  63  1892.582
  64  1870.339
  65  1959.923
  66  1891.524
  67  1862.05
  68  1795.07
  69  1732.509
  70  1748.026
  71  1810.137
  72  1860.776
  73  1893.265
  74  1911.661
  75  1895.605
  76  1853.405
  77  1844.947
  78  1887.387
  79  1770.423
  80  1789.636
  81  1760.19
  82  1815.465
  83  1838.339
  84  1949.041
  85  1945.057
  86  1970.397
  87  1965.276
  88  1985.361
  89  1873.708
  90  1835.784
  91  1942.639
  92  2068.047
  93  2146.926
  94  2002.155
  95  1819.639
  96  1730.321
  97  1756.44
  98  1795.735
  99  1842.992
 100  1929.421
 101  1937.465
 102  1919.796
 103  1944.75
 104  1956.324
 105  1918.001
 106  1825.836
 107  1680.525
 108  1651.296
 109  1730.481
 110  1834.604
 111  1868.38
 112  1768.994
 113  1805.932
 114  1791.254
 115  1800.308
 116  1786.103
 117  1777.775
 118  1782.374
 119  1737.11
 120  1762.786
 121  1788.346
 122  1801.49
 123  1829.195
 124  1779.836
 125  1770.989
 126  1878.574
 127  1926.512
 128  2022.653
 129  2068.574
 130  2050.872
 131  1976.63
 132  1929.421
 133  1894.565
 134  1876.858
 135  1916.026
 136  1988.537
 137  1991.196
 138  1994.477
 139  2038.646
 140  2020.351
 141  2119.487
 142  2154.604
 143  2201.106
 144  2116.083
 145  1994.209
 146  2002.551
 147  1935.307
 148  1787.943
 149  1762.543
 150  1815.777
 151  1837.301
 152  1631.918
 153  1656.727
 154  1731.022
 155  1906.695
 156  1947.281
 157  1928.229
 158  1995.579
 159  1993.031
 160  1923.197
 161  1725.617
 162  1664.542
 163  1793.527
 164  1877.207
 165  1918.465
 166  1918.744
 167  1899.511
 168  1786.525
 169  1752.858
 170  1806.23
 171  1845.071
 172  1727.693
 173  1672.367
 174  1688.314
 175  1775.791
 176  1838.633
 177  1937.385
 178  1801.686
 179  1677.683
 180  1569.256
 181  1670.433
 182  1754.008
 183  1751.058
 184  1611.419
 185  1567.735
 186  1595.043
 187  1641.628
 188  1732.718
 189  1796.367
 190  1924.961
 191  1851.247
 192  1752.614
 193  1783.515
 194  1776.207
 195  1811.037
 196  1737.07
 197  1771.119
 198  1765.74
 199  1787.503
 200  1796.116
 201  1924.865
 202  1860.508
 203  1858.891
 204  1908.598
 205  1955.063
 206  2110.164
 207  2076.7
 208  2054.21
 209  1917.722
 210  1895.471
 211  1893.276
 212  1902.446
 213  1906.06
 214  1859.697
 215  1869.336
 216  2019.179
 217  2135.479
 218  2152.559
 219  2192.795
 220  2198.366
 221  2115.22
 222  2011.624
 223  1992.856
 224  2057.621
 225  2085.751
 226  1973.671
 227  1973.12
 228  1923.929
 229  1997.5
 230  2081.378
 231  2057.817
 232  1985.361
 233  1972.497
 234  1964.985
 235  1914.385
 236  1852.142
 237  1856.509
 238  1801.047
 239  1723.996
 240  1748.395
 241  1820.886
 242  1831.298
 243  1810.931
 244  1752.165
 245  1706.074
 246  1768.369
 247  1759.298
 248  1699.488
 249  1669.456
 250  1805.586
 251  1920.999
 252  1986.08
 253  1832.326
 254  1749.1
 255  1771.91
 256  1748.079
 257  1763.899
 258  1826.925
 259  1849.763
 260  1871.887
 261  1856.998
 262  1862.122
 263  1809.393
 264  1690.262
 265  1777.352
 266  1789.325
 267  1831.319
 268  1754.071
 269  1719.3
 270  1783.164
 271  1724.534
 272  1793.563
 273  1793.898
 274  1832.029
 275  1756.661
 276  1678.742
 277  1718.171
 278  1608.138
 279  1637.987
 280  1542.267
 281  1714.401
 282  1705.432
 283  1722.552
 284  1701.532
 285  1815.988
 286  1886.085
 287  1933.508
 288  1991.101
 289  1994.024
 290  1881.765
 291  1887.925
 292  1993.806
 293  2124.633
 294  2081.258
 295  1962.802
 296  1935.621
 297  1979.984
 298  1982.282
 299  2025.92
 300  2113.839
 301  2223.674
 302  2154.026
 303  2121.341
 304  2053.858
 305  2039.495
 306  1901.353
 307  1832.086
 308  1711.06
 309  1756.295
 310  1733.775
 311  1818.269
 312  1739.181
 313  1796.547
 314  1897.279
 315  1941.582
 316  1860.962
 317  1756.765
 318  1732.918
 319  1681.968
 320  1786.974
 321  1882.238
 322  1870.791
 323  1787.777
 324  1837.465
 325  1930.743
 326  1911.657
 327  1723.986
 328  1731.907
 329  1769.302
 330  1848.451
 331  1703.649
 332  1816.821
 333  1811.397
 334  1729.089
 335  1522.672
 336  1474.39
 337  1549.391
 338  1706.512
 339  1853.322
 340  1796.574
 341  1750.908
 342  1570.781
 343  1530.855
 344  1455.29
 345  1503.292
 346  1503.186
 347  1536.837
 348  1600.905
 349  1679.321
 350  1824.315
 351  1786.712
 352  1735.067
 353  1623.338
 354  1676.925
 355  1673.272
 356  1650.373
 357  1678.174
 358  1880.114
 359  1972.213
 360  1903.825
 361  1771.306
 362  1858.926
 363  1940.253
 364  2001.73
 365  1922.698
 366  1882.139
 367  1851.663
 368  1877.916
 369  1853.222
 370  1792.664
 371  1697.654
 372  1689.378
 373  1757.855
 374  1836.478
 375  1819.952
 376  1752.36
 377  1802.402
 378  1818.314
 379  1958.348
 380  1963.182
 381  1868.801
 382  1700.882
 383  1635.382
 384  1692.634
 385  1698.663
 386  1793.082
 387  1771.067
 388  1771.871
 389  1755.509
 390  1669.166
 391  1589.361
 392  1645.101
 393  1806.245
 394  1772.949
 395  1685.766
 396  1604.813
 397  1690.997
 398  1805.028
 399  1807.636
 400  1813.781
 401  1709.377
 402  1672.142
 403  1582.03
 404  1497.404
 405  1369.854
 406  1350.846
 407  1391.606
 408  1491.107
 409  1476.791
 410  1410.765
 411  1373.07
 412  1415.847
 413  1359.628
 414  1420.744
 415  1423.078
 416  1360.112
 417  1248.948
 418  1262.704
 419  1326.219
 420  1388.437
 421  1394.915
 422  1404.717
 423  1406.216
 424  1404.387
 425  1439.301
 426  1317.232
 427  1323.11
 428  1321.929
 429  1447.98
 430  1435.91
 431  1526.687
 432  1533.054
 433  1471.065
 434  1461.5
 435  1565.994
 436  1671.181
 437  1713.757
 438  1688.192
 439  1663.827
 440  1630.222
 441  1666.974
 442  1714.732
 443  1681.012
 444  1702.883
 445  1869.817
 446  1980.445
 447  1893.345
 448  1742.514
 449  1733.522
 450  1796.34
 451  1895.995
 452  1794.758
 453  1782.818
 454  1824.256
 455  1945.929
 456  1913.906
 457  1813.998
 458  1722.9
 459  1694.493
 460  1828.943
 461  1868.897
 462  1859.617
 463  1804.279
 464  1840.782
 465  1783.526
 466  1758.76
 467  1724.014
 468  1703.088
 469  1701.184
 470  1771.593
 471  1876.239
 472  1957.755
 473  1933.372
 474  1831.306
 475  1708.362
 476  1749.832
 477  1781.298
 478  1773.524
 479  1779.557
 480  1901.285
 481  1756.389
 482  1645.437
 483  1613.164
 484  1737.99
 485  1733.45
 486  1702.993
 487  1730.895
 488  1791.063
 489  1847.494
 490  1858.267
 491  1863.686
 492  1836.331
 493  1636.393
 494  1530.966
 495  1530.02
 496  1651.369
 497  1758.043
 498  1735.975
 499  1669.144
 500  1542.228
 501  1451.143
 502  1423.139
 503  1426.766
 504  1509.19
 505  1571.37
 506  1627.978
 507  1526.884
 508  1465.517
 509  1366.975
 510  1435.879
 511  1436.088
 512  1526.344
 513  1545.732
 514  1471.324
 515  1342.464
 516  1394.966
 517  1499.751
 518  1558.301
 519  1373.274
 520  1260.588
 521  1406.258
 522  1580.133
 523  1666.612
 524  1643.148
 525  1646.497
 526  1606.417
 527  1539.545
 528  1540.009
 529  1614.664
 530  1781.811
 531  1781.078
 532  1741.82
 533  1623.185
 534  1577.779
 535  1530.562
 536  1670.039
 537  1743.307
 538  1690.558
 539  1610.36
 540  1658.37
 541  1622.967
 542  1704.182
 543  1707.892
 544  1810.419
 545  1794.062
 546  1817.455
 547  1821.174
 548  1815.928
 549  1918.467
 550  1896.391
 551  1890.214
 552  1804.917
 553  1864.887
 554  1946.782
 555  1954.938
 556  1980.178
 557  1986.378
 558  2057.181
 559  2128.582
 560  2131.637
 561  2061.762
 562  2021.748
 563  1961.202
 564  1930.337
 565  1751.886
 566  1848.801
 567  1933.697
 568  1979.391
 569  1942.911
 570  1890.989
 571  1802.114
 572  1785.953
 573  1949.577
 574  2004.594
 575  1846.35
 576  1700.497
 577  1638.849
 578  1595.766
 579  1565.973
 580  1692.731
 581  1743.977
 582  1818.375
 583  1780.577
 584  1833.208
 585  1806.828
 586  1822.176
 587  1793.845
 588  1676.674
 589  1638.621
 590  1684.369
 591  1956.731
 592  2157.354
 593  2319.772
 594  2434.388
 595  2497.918
 596  2601.32
 597  2735.45
 598  2924.355
 599  3028.181
 600  2938.17
 601  2821.903
 602  2660.003
 603  2612.28
 604  2462.67
 605  2307.453
 606  2196.518
 607  2061.449
 608  1781.639
 609  1667.001
 610  1734.962
 611  1791.305
 612  1762.585
 613  1716.464
 614  1638.722
 615  1603.379
 616  1760.772
 617  1932.949
 618  1921.856
 619  1863.036
 620  1840.876
 621  1897.959
 622  1894.903
 623  1950.737
 624  2068.07
 625  2231.771
 626  2276.065
 627  2335.036
 628  2303.971
 629  2269.628
 630  2251.791
 631  2176.399
 632  2058.347
 633  2021.598
 634  2103.148
 635  2093.368
 636  2045.474
 637  2086.482
 638  2198.154
 639  2268.758
 640  2276.502
 641  2224.501
 642  2134.423
 643  2057.183
 644  2075.999
 645  2130.483
 646  2136.464
 647  2082.601
 648  2148.949
 649  2172.914
 650  2090.218
 651  2057.706
 652  2080.62
 653  2222.05
 654  2271.044
 655  2271.833
 656  2248.992
 657  2196.398
 658  2105.583
 659  1998.411
 660  1916.505
 661  1976.585
 662  1982.175
 663  1935.954
 664  1890.748
 665  1851.85
 666  1825.066
 667  1747.588
 668  1667.671
 669  1681.04
 670  1705.43
 671  1761.917
 672  1729.953
 673  1647.911
 674  1707.492
 675  1735.598
 676  1800.147
 677  1764.957
 678  1823.692
 679  1873.925
 680  1846.02
 681  1794.483
 682  1785.986
 683  1766.071
 684  1755.644
 685  1835.413
 686  1910.176
 687  1939.302
 688  1824.982
 689  1878.734
 690  1919.033
 691  1936.835
 692  1891.709
 693  1821.731
 694  1816.706
 695  1803.045
 696  1874.54
 697  1953.689
 698  1890.583
 699  1899.91
 700  1942.918
 701  1966.276
 702  1928.816
 703  1946.686
 704  2004.701
 705  1967.419
 706  1800.31
 707  1677.549
 708  1588.469
 709  1793.546
 710  1951.937
 711  1998.677
 712  1903.582
 713  1836.791
 714  1890.418
 715  1972.042
 716  1996.57
 717  2034.664
 718  2073.807
 719  2046.356
 720  2046.172
 721  2089.852
 722  2149.895
 723  2106.265
 724  2118.96
 725  2139.068
 726  2182.751
 727  2124.48
 728  1989.29
 729  2014.641
 730  1992.44
 731  2138.804
 732  2150.679
 733  2099.451
 734  2113.562
 735  2047.585
 736  2014.967
 737  1960.401
 738  2012.869
 739  1879.86
 740  1797.078
 741  1676.012
 742  1768.648
 743  1657.316
 744  1587.031
 745  1569.904
 746  1609.763
 747  1702.938
 748  1837.603
 749  1889.172
 750  1885.725
 751  1810.728
 752  1897.994
 753  1856.713
 754  1609.107
 755  1499.699
 756  1602.975
 757  1720.437
 758  1700.713
 759  1650.347
 760  1662.411
 761  1681.05
 762  1709.121
 763  1758.047
 764  1769.254
 765  1752.343
 766  1761.441
 767  1817.419
 768  1883.377
 769  1892.299
 770  1835.509
 771  1748.686
 772  1709.206
 773  1730.781
 774  1848.356
 775  1882.073
 776  1953.162
 777  1916.082
 778  1779.014
 779  1788.139
 780  1747.469
 781  1759.733
 782  1723.894
 783  1913.202
 784  2062.529
 785  2072.064
 786  1984.949
 787  1895.457
 788  1939.676
 789  1801.304
 790  1848.416
 791  1866.889
 792  2066.716
 793  2105.17
 794  2144.777
 795  2239.651
 796  2261.88
 797  2244.015
 798  2106.979
 799  1962.311
 800  1959.638
 801  2066.034
 802  2113.566
 803  2161.318
 804  2105.241
 805  2105.358
 806  2057.945
 807  2126.395
 808  2236.15
 809  2121.615
 810  2044.383
 811  2061.21
 812  2102.292
 813  2224.078
 814  2202.48
 815  2184.323
 816  1947.068
 817  1835.865
 818  1907.945
 819  2052.584
 820  2141.225
 821  2149.961
 822  2154.235
 823  1929.064
 824  1858.548
 825  1847.046
 826  1999.103
 827  2135.929
 828  2210.324
 829  2143.957
 830  1967.811
 831  1763.295
 832  1642.973
 833  1594.269
 834  1793.739
 835  1759.303
 836  1754.656
 837  1733.462
 838  1929.982
 839  2058.244
 840  2071.167
 841  2058.349
 842  2074.498
 843  2090.638
 844  1991.988
 845  1886.339
 846  1900.053
 847  1866.819
 848  1926.789
 849  1866.606
 850  1958.3
 851  1805.334
 852  1857.74
 853  1808.698
 854  1941.161
 855  1902.284
 856  1885.561
 857  1834.939
 858  1772.198
 859  1688.9
 860  1696.937
 861  1815.282
 862  1792.351
 863  1656.063
 864  1596.387
 865  1702.894
 866  1775.794
 867  1879.113
 868  1904.944
 869  1790.226
 870  1578.316
 871  1536.301
 872  1594.803
 873  1663.284
 874  1493.073
 875  1521.093
 876  1657.291
 877  1835.359
 878  1836.807
 879  1896.334
 880  1915.602
 881  1912.555
 882  1850.601
 883  1869.172
 884  1772.973
 885  1588.976
 886  1457.244
 887  1518.337
 888  1677.774
 889  1773.455
 890  1819.996
 891  1796.53
 892  1857.771
 893  1745.741
 894  1612.448
 895  1503.271
 896  1589.228
 897  1731.45
 898  1851.895
 899  1949.693
 900  1933.552
 901  1893.414
 902  1833.231
 903  1794.601
 904  1803.988
 905  1742.617
 906  1703.447
 907  1652.498
 908  1755.089
 909  1810.764
 910  1767.444
 911  1679.245
 912  1636.722
 913  1591.385
 914  1607.237
 915  1632.781
 916  1630.472
 917  1427.77
 918  1353.712
 919  1407.827
 920  1483.811
 921  1541.965
 922  1483.342
 923  1436.421
 924  1431.076
 925  1536.79
 926  1570.68
 927  1575.123
 928  1493.281
 929  1464.439
 930  1302.96
 931  1415.93
 932  1363.187
 933  1325.337
 934  1233.975
 935  1316.357
 936  1484.202
 937  1497.45
 938  1503.09
 939  1478.751
 940  1520.151
 941  1420.482
 942  1379.993
 943  1450.704
 944  1443.581
 945  1427.158
 946  1448.554
 947  1563.43
 948  1684.067
 949  1738.676
 950  1767.043
 951  1803.43
 952  1733.981
 953  1712.586
 954  1588.67
 955  1573.447
 956  1543.648
 957  1647.048
 958  1693.378
 959  1576.213
 960  1658.686
 961  1825.482
 962  1949.315
 963  1899.198
 964  1903.508
 965  1927.023
 966  1898.144
 967  1805.048
 968  1748.464
 969  1730.533
 970  1780.443
 971  1908.774
 972  1909.816
 973  1772.487
 974  1684.535
 975  1856.045
 976  2132.267
 977  2261.292
 978  2234.999
 979  2179.359
 980  2202.538
 981  2225.301
 982  2286.192
 983  2256.223
 984  2330.04
 985  2288.642
 986  2295.302
 987  2116.608
 988  2032.626
 989  2047.04
 990  2192.256
 991  2291.225
 992  2295.464
 993  2225.618
 994  2177.423
 995  2146.322
 996  2211.388
 997  2282.167
 998  2240.259
 999  2191.94
1000  2076.651
1001  1954.651
1002  1833.784
1003  1786.33
1004  1774.024
1005  1778.038
1006  1832.982
1007  1709.56
1008  1660.393
1009  1670.578
1010  1852.519
1011  1797.708
1012  1761.07
1013  1841.691
1014  1867.796
1015  1809.507
1016  1751.527
1017  1800.888
1018  1764.665
1019  1681.46
1020  1759.107
1021  1826.004
1022  1910.334
1023  1792.902
