# Input file       =  1210479741.110695_cleaned.dat
# Candidate        =  PSR_0332+5434
# Telescope        =  AR
# Epoch_topo       =  58254.182408688597
# Epoch_bary       =  N/A
# T_sample         =  0.002
# Data Folded      =  7208960
# Data Avg         =  0.193554680888668
# Data StdDev      =  5.83876399577833 
# Profile Bins     =  1024
# Profile Avg      =  1362.66155630752 
# Profile StdDev   =  489.89978729197  
# Reduced chi-sqr  =  0.588
# Prob(Noise)      <  1   (~0.0 sigma)
# P_topo (ms)      =  714.532424673353  +/- 2.84e-05
# P'_topo (s/s)    =  -0                +/- 1.52e-11
# P''_topo (s/s^2) =  0                 +/- 6.85e-15
# P_bary (ms)      =  N/A
# P'_bary (s/s)    =  N/A
# P''_bary (s/s^2) =  N/A
# P_orb (s)        =  N/A
# asin(i)/c (s)    =  N/A
# eccentricity     =  N/A
# w (rad)          =  N/A
# T_peri           =  N/A
######################################################
   0  1365.597
   1  1492.54
   2  1449.06
   3  1087.789
   4  1040.292
   5  1182.953
   6  1216.199
   7  1128.933
   8  1137.221
   9  1470.094
  10  1337.265
  11  1212.148
  12  1275.752
  13  1367.053
  14  1328.677
  15  1232.268
  16  1297.075
  17  1320.651
  18  1186.427
  19  1360.885
  20  1170.849
  21  1172.082
  22  1240.237
  23  1405.315
  24  1394.291
  25  1320.231
  26  1412.152
  27  1380.257
  28  1256.865
  29  1286.436
  30  1336.78
  31  1147.489
  32  1081.302
  33  1213.391
  34  1456.867
  35  1152.442
  36  1161.567
  37  1314.507
  38  1374.225
  39  1333.365
  40  1347.616
  41  1637.366
  42  1581.698
  43  1462.166
  44  1486.082
  45  1306.583
  46  1135.43
  47  1089.349
  48  1401.649
  49  1560.031
  50  1428.452
  51  1616.67
  52  1724.498
  53  1743.9
  54  1629.086
  55  1677.734
  56  1576.537
  57  1290.083
  58  1199.922
  59  1253.897
  60  1313.774
  61  1359.916
  62  1435.528
  63  1425.393
  64  1380.568
  65  1348.361
  66  1324.986
  67  1379.351
  68  1243.433
  69  1395.761
  70  1439.579
  71  1515.659
  72  1325.818
  73  1404.654
  74  1636.385
  75  1492.076
  76  1333.256
  77  1300.711
  78  1439.095
  79  1341.419
  80  1284.409
  81  1319.765
  82  1326.881
  83  1239.273
  84  1354.907
  85  1415.64
  86  1289.075
  87  1298.744
  88  1348.473
  89  1462.437
  90  1284.404
  91  1325.534
  92  1442.178
  93  1517.427
  94  1523.392
  95  1402.538
  96  1344.918
  97  1264.075
  98  1269.733
  99  1147.612
 100  943.7888
 101  1087.319
 102  1474.417
 103  1716.884
 104  1540.296
 105  1508.547
 106  1560.199
 107  1498.719
 108  1258.208
 109  1379.335
 110  1600.845
 111  1457.028
 112  1227.537
 113  1224.914
 114  1373.635
 115  1360.286
 116  1361.003
 117  1305.711
 118  1091.164
 119  1129.532
 120  1351.743
 121  1497.685
 122  1464.434
 123  1476.841
 124  1599.541
 125  1519.218
 126  1502.276
 127  1321.743
 128  1179.895
 129  1064.006
 130  1158.204
 131  1174.992
 132  1075.922
 133  952.8202
 134  1149.428
 135  1327.669
 136  1313.491
 137  1179.092
 138  1422.728
 139  1527.502
 140  1453.703
 141  1358.929
 142  1539.189
 143  1615.725
 144  1480.933
 145  1473.526
 146  1359.073
 147  1254.146
 148  1175.842
 149  1371.213
 150  1254.832
 151  1067.646
 152  1197.464
 153  1348.188
 154  1392.538
 155  1285.513
 156  1318.615
 157  1177.472
 158  1104.571
 159  1280.438
 160  1353.364
 161  1239.383
 162  1101.998
 163  1246.975
 164  1124.518
 165  1000.545
 166  1110.105
 167  1379.95
 168  1372.208
 169  1326.213
 170  1453.547
 171  1585.349
 172  1474.554
 173  1285.738
 174  1413.637
 175  1517.523
 176  1506.726
 177  1277.504
 178  1230.017
 179  1190.01
 180  1259.214
 181  1512.173
 182  1590.55
 183  1621.402
 184  1526.546
 185  1492.041
 186  1068.357
 187  942.8332
 188  1063.884
 189  1273.795
 190  1196.22
 191  1161.229
 192  1126.041
 193  1030.453
 194  1066.968
 195  1131.586
 196  1105.535
 197  1071.092
 198  1141.429
 199  1362.398
 200  1481.989
 201  1414.804
 202  1458.46
 203  1580.835
 204  1678.57
 205  1402.028
 206  1289.559
 207  1461.274
 208  1559.463
 209  1511.475
 210  1573.61
 211  1448.072
 212  1420.172
 213  1337.29
 214  1493.727
 215  1487.839
 216  1342.315
 217  1352.914
 218  1338.986
 219  1247.967
 220  1347.51
 221  1433.776
 222  1460.526
 223  1262.631
 224  1310.153
 225  1457.761
 226  1404.377
 227  1330.849
 228  1276.707
 229  1180.588
 230  1243.111
 231  1308.268
 232  1429.75
 233  1423.107
 234  1293.83
 235  1494.05
 236  1442.895
 237  1416.521
 238  1193.785
 239  1416.931
 240  1695.193
 241  1583.89
 242  1411.107
 243  1448.435
 244  1411.381
 245  1505.093
 246  1566.961
 247  1648.352
 248  1410.43
 249  1527.759
 250  1594.813
 251  1505.426
 252  1384.038
 253  1481.065
 254  1526.125
 255  1298.804
 256  1325.115
 257  1525.458
 258  1647.628
 259  1642.716
 260  1597.01
 261  1512.02
 262  1307.997
 263  1157.74
 264  1317.629
 265  1414.582
 266  1316.454
 267  1449.752
 268  1647.788
 269  1598.763
 270  1417.842
 271  1436.704
 272  1747.695
 273  1733.165
 274  1533.682
 275  1449.96
 276  1464.784
 277  1349.519
 278  1319.204
 279  1478.813
 280  1575.947
 281  1533.142
 282  1662.54
 283  1622.88
 284  1490.909
 285  1513.688
 286  1844.419
 287  1697.271
 288  1437.326
 289  1389.528
 290  1538.794
 291  1322.221
 292  1234.683
 293  1438.055
 294  1560.195
 295  1402.16
 296  1308.269
 297  1236.67
 298  1163.408
 299  1098.983
 300  1342.358
 301  1647.617
 302  1584.111
 303  1546.149
 304  1676.213
 305  1700.744
 306  1397.604
 307  1460.949
 308  1798.321
 309  1794.535
 310  1535.843
 311  1384.831
 312  1362.081
 313  1288.223
 314  1556.173
 315  1763.382
 316  1674.877
 317  1438.549
 318  1550.388
 319  1505.842
 320  1269.893
 321  1356.966
 322  1683.355
 323  1841.538
 324  1513.177
 325  1282.363
 326  1206.889
 327  1085.778
 328  1117.728
 329  1185.869
 330  1205.691
 331  1187.445
 332  1276.149
 333  1448.538
 334  1440.841
 335  1382.621
 336  1467.839
 337  1559.048
 338  1481.011
 339  1433.759
 340  1455.636
 341  1616.294
 342  1567.311
 343  1548.307
 344  1430.087
 345  1415.366
 346  1361.523
 347  1532.74
 348  1474.031
 349  1360.239
 350  1541.058
 351  1722.356
 352  1659.412
 353  1441.243
 354  1500.86
 355  1541.499
 356  1291.29
 357  1370.458
 358  1460.055
 359  1398.637
 360  1223.836
 361  1183.31
 362  1189.671
 363  1261.489
 364  1356.731
 365  1462.751
 366  1443.123
 367  1177.125
 368  1127.587
 369  1274.433
 370  1509.611
 371  1354.144
 372  1400.642
 373  1583.42
 374  1590.186
 375  1349.905
 376  1325.541
 377  1282.15
 378  1310.584
 379  1253.05
 380  1460.356
 381  1407.637
 382  1417.665
 383  1445.603
 384  1476.676
 385  1279.329
 386  1282.868
 387  1391.134
 388  1533.722
 389  1444.604
 390  1477.018
 391  1590.902
 392  1480.797
 393  1454.527
 394  1276.481
 395  1180.88
 396  1077.297
 397  1322.935
 398  1596.2
 399  1384.61
 400  1239.066
 401  1251.447
 402  1484.373
 403  1473.366
 404  1426.306
 405  1635.047
 406  1610.589
 407  1307.285
 408  1073.322
 409  1039.211
 410  988.5753
 411  1090.002
 412  1373.495
 413  1540.522
 414  1376.059
 415  1485.057
 416  1632.335
 417  1352.577
 418  1101.635
 419  1243.552
 420  1475.067
 421  1382.52
 422  1284.328
 423  1273.915
 424  1114.447
 425  934.9348
 426  1085.409
 427  1230.048
 428  1209.903
 429  1122.658
 430  1217.063
 431  1283.925
 432  1039.628
 433  1223.671
 434  1400.633
 435  1531.38
 436  1324.484
 437  1418.329
 438  1601.922
 439  1470.973
 440  1325.383
 441  1428.3
 442  1474.582
 443  1374.9
 444  1288.623
 445  1283.49
 446  1254.579
 447  1164.253
 448  1342.522
 449  1318.928
 450  1172.301
 451  1306.27
 452  1558.446
 453  1600.882
 454  1346.23
 455  1337.78
 456  1452.474
 457  1527.356
 458  1350.342
 459  1283.066
 460  1135.818
 461  1140.414
 462  1285.097
 463  1338.84
 464  1190.854
 465  1083.553
 466  1317.348
 467  1555.971
 468  1349.795
 469  1214.498
 470  1312.384
 471  1526.922
 472  1411.774
 473  1303.441
 474  1358.174
 475  1240.752
 476  1107.308
 477  1121.922
 478  1204.374
 479  1185.753
 480  1243.742
 481  1397.118
 482  1303.605
 483  1161.639
 484  1270.01
 485  1286.337
 486  1206.311
 487  1233.495
 488  1457.916
 489  1454.021
 490  1295.823
 491  1148.262
 492  1183.14
 493  1250.756
 494  1236.698
 495  1227.755
 496  1115.305
 497  1136.389
 498  1250.802
 499  1468.673
 500  1347.578
 501  1168.302
 502  1387.888
 503  1598.869
 504  1625.274
 505  1404.512
 506  1356.793
 507  1342.028
 508  1181.233
 509  1279.805
 510  1209.018
 511  1353.126
 512  1235.615
 513  1329.983
 514  1219.859
 515  1130.443
 516  1261.416
 517  1347.33
 518  1317.94
 519  1282.602
 520  1246.161
 521  1255.563
 522  1056.005
 523  1018.019
 524  1095.772
 525  979.1671
 526  844.0163
 527  944.4801
 528  1027.999
 529  1040.685
 530  1020.608
 531  1272.091
 532  1376.903
 533  1258.946
 534  1329.434
 535  1544.308
 536  1586.198
 537  1394.59
 538  1493.431
 539  1736.188
 540  1667.485
 541  1421.177
 542  1457.292
 543  1287.594
 544  1155.93
 545  1042.207
 546  1216.41
 547  1128.096
 548  1226.355
 549  1445.266
 550  1445.08
 551  1349.769
 552  1318.844
 553  1441.546
 554  1397.261
 555  1276.676
 556  1329.735
 557  1412.195
 558  1367.653
 559  1213.008
 560  1038.563
 561  983.4047
 562  1095.916
 563  1527.669
 564  1740.148
 565  1447.61
 566  1016.773
 567  1007.78
 568  1227.404
 569  1319.501
 570  1276.808
 571  1582.213
 572  1597.161
 573  1571.267
 574  1335.588
 575  1270.589
 576  1193.178
 577  1214.764
 578  1262.977
 579  1337.745
 580  1258.482
 581  1496.629
 582  1630.835
 583  1587.141
 584  1423.429
 585  1474.323
 586  1483.735
 587  1470.063
 588  1409.463
 589  1647.041
 590  1617.192
 591  1516.281
 592  1438.796
 593  1433.035
 594  1587.429
 595  1844.807
 596  2185.103
 597  2341.096
 598  2327.857
 599  2457.41
 600  2783.659
 601  2718.959
 602  2615.208
 603  2499.347
 604  2675.424
 605  2304.703
 606  1960.888
 607  1664.219
 608  1563.071
 609  1438.051
 610  1609.084
 611  1613.971
 612  1474.478
 613  1259.006
 614  1380.011
 615  1264.455
 616  1103.499
 617  1225.905
 618  1411.256
 619  1430.818
 620  1226.305
 621  1328.654
 622  1404.152
 623  1395.699
 624  1327.808
 625  1152.072
 626  1096.315
 627  1154.811
 628  1462.085
 629  1457.129
 630  1160.675
 631  1149.155
 632  1522.006
 633  1712.624
 634  1529.938
 635  1306.178
 636  1461.17
 637  1580.79
 638  1438.201
 639  1287.435
 640  1281.904
 641  1307.239
 642  1341.042
 643  1355.334
 644  1240.451
 645  1232.54
 646  1371.312
 647  1528.534
 648  1398.768
 649  1444.364
 650  1467.52
 651  1368.198
 652  1055.325
 653  1246.597
 654  1400.409
 655  1325.646
 656  1102
 657  927.6905
 658  835.2211
 659  805.2319
 660  968.8497
 661  1117.774
 662  1220.702
 663  1185.125
 664  1359.691
 665  1571.996
 666  1468.074
 667  1236.925
 668  1286.111
 669  1512.047
 670  1423.706
 671  1263.343
 672  1285.148
 673  1238.346
 674  1106.314
 675  1202.959
 676  1321.709
 677  1344.241
 678  1349.126
 679  1422.393
 680  1295.233
 681  1103.573
 682  1253.215
 683  1385.314
 684  1416.227
 685  1372.18
 686  1380.443
 687  1352.148
 688  1335.172
 689  1267.06
 690  1272.374
 691  1052.223
 692  1012.478
 693  1084.455
 694  1092.882
 695  1132.256
 696  1186.18
 697  1387.527
 698  1388.435
 699  1253.313
 700  1342.956
 701  1542.24
 702  1646.341
 703  1279.977
 704  1270.016
 705  1386.277
 706  1478.044
 707  1294.153
 708  1268.953
 709  1237.145
 710  1145.231
 711  1220.336
 712  1392.579
 713  1354.161
 714  1428.122
 715  1572.969
 716  1604.147
 717  1355.37
 718  1341.923
 719  1411.419
 720  1398.948
 721  1251.121
 722  1143.538
 723  1156.828
 724  1158.661
 725  1320.014
 726  1255.468
 727  1193.981
 728  1033.997
 729  1134.306
 730  1275.043
 731  1118.905
 732  1067.013
 733  1187.985
 734  1505.978
 735  1341.886
 736  1177.464
 737  1458.99
 738  1508.916
 739  1377.111
 740  1336.45
 741  1348.644
 742  1250.752
 743  1114.265
 744  1258.27
 745  1280.474
 746  1159.465
 747  1239.119
 748  1286.147
 749  1274.35
 750  1211.993
 751  1254.924
 752  1446.072
 753  1340.191
 754  1321.476
 755  1359.581
 756  1408.643
 757  1456.475
 758  1326.802
 759  1227.515
 760  1041.737
 761  1089.969
 762  1378.267
 763  1346.558
 764  1210.998
 765  1177.702
 766  1515.674
 767  1517.707
 768  1333.619
 769  1387.935
 770  1545.881
 771  1457.992
 772  1272.468
 773  1318.217
 774  1354.645
 775  1357.567
 776  1643.21
 777  1680.335
 778  1459.51
 779  1438.922
 780  1686.904
 781  1615.821
 782  1358.151
 783  1473.163
 784  1654.76
 785  1573.04
 786  1343.542
 787  1311.063
 788  1354.671
 789  1275.469
 790  1240.791
 791  1256.33
 792  1221.976
 793  1198.774
 794  1306.86
 795  1415.167
 796  1373.316
 797  1486.226
 798  1797.835
 799  1622.683
 800  1334.676
 801  1337.593
 802  1687.733
 803  1698.929
 804  1587.753
 805  1609.166
 806  1503.961
 807  1191.313
 808  1183.323
 809  1415.927
 810  1440.431
 811  1355.731
 812  1471.997
 813  1600.579
 814  1479.277
 815  1523.241
 816  1614.094
 817  1656.014
 818  1531.567
 819  1596.728
 820  1602.569
 821  1346.868
 822  1332.172
 823  1353.401
 824  1312.255
 825  1312.991
 826  1477.41
 827  1599.16
 828  1375.143
 829  1234.746
 830  1383.966
 831  1369.548
 832  1267.838
 833  1171.533
 834  1388.958
 835  1575.663
 836  1465.808
 837  1460.106
 838  1442.174
 839  1383.144
 840  1406.509
 841  1429.493
 842  1484.134
 843  1274.08
 844  1424.28
 845  1597.745
 846  1434.035
 847  1207.716
 848  1346.791
 849  1527.325
 850  1382.115
 851  1275.398
 852  1340.932
 853  1459.354
 854  1388.156
 855  1368.973
 856  1222.179
 857  1180.872
 858  1268.789
 859  1513.457
 860  1459.001
 861  1275.756
 862  1330.927
 863  1492.015
 864  1553.987
 865  1596.424
 866  1605.99
 867  1720.883
 868  1474.76
 869  1283.285
 870  1413.478
 871  1454.925
 872  1491.703
 873  1263.075
 874  1348.593
 875  1422.674
 876  1457.761
 877  1691.055
 878  1619.24
 879  1520.292
 880  1452.633
 881  1552.973
 882  1479.953
 883  1321.376
 884  1318.907
 885  1449.642
 886  1418.178
 887  1313.74
 888  1094.66
 889  865.5378
 890  796.1322
 891  983.4131
 892  1318.289
 893  1335.335
 894  1215.206
 895  1286.567
 896  1364.855
 897  1231.771
 898  1026.951
 899  1250.078
 900  1529.986
 901  1421.222
 902  1420.881
 903  1471.652
 904  1446.224
 905  1379.375
 906  1431.629
 907  1409.75
 908  1230.255
 909  1241.877
 910  1309.865
 911  1161.531
 912  1144.552
 913  1384.127
 914  1477.971
 915  1410.402
 916  1400.257
 917  1521.144
 918  1421.847
 919  1259.039
 920  1296.347
 921  1360.279
 922  1346.538
 923  1243.438
 924  1269.307
 925  1265.62
 926  1162.422
 927  1345.63
 928  1525.908
 929  1498.138
 930  1374.561
 931  1303.388
 932  1550.008
 933  1333.525
 934  1211.905
 935  1223.533
 936  1287.893
 937  1117.79
 938  892.9779
 939  937.2685
 940  1084.617
 941  1178.917
 942  1409.178
 943  1643.948
 944  1481.755
 945  1555.447
 946  1554.094
 947  1518.747
 948  1366.621
 949  1317.825
 950  1484.761
 951  1262.357
 952  1131.958
 953  976.4049
 954  924.1038
 955  997.856
 956  1086.936
 957  1097.038
 958  842.4067
 959  780.5591
 960  1081.401
 961  1297.883
 962  1146.666
 963  1117.569
 964  1450.01
 965  1595.406
 966  1441.338
 967  1390.587
 968  1464.693
 969  1357.489
 970  1222.25
 971  1181.26
 972  1236.913
 973  1110.414
 974  1101.253
 975  1123.099
 976  983.2504
 977  1097.247
 978  1361.905
 979  1460.1
 980  1235.386
 981  1301.774
 982  1559.611
 983  1491.121
 984  1344.817
 985  1292.3
 986  1436.202
 987  1351.421
 988  1390.647
 989  1225.835
 990  1106.527
 991  1031.684
 992  1389.349
 993  1618.675
 994  1420.71
 995  1285.446
 996  1407.063
 997  1630.05
 998  1427.523
 999  1320.85
1000  1602.482
1001  1718.876
1002  1474.427
1003  1345.465
1004  1313.087
1005  1154.249
1006  1158.756
1007  1348.015
1008  1471.096
1009  1354.182
1010  1613.383
1011  1809.084
1012  1563.259
1013  1171.481
1014  956.8372
1015  1119.804
1016  960.2994
1017  1120.56
1018  1250.306
1019  1260.031
1020  1015.072
1021  1065.265
1022  1150.861
1023  1266.642
