# Input file       =  1210135029.122591_cleaned.dat
# Candidate        =  PSR_0332+5434
# Telescope        =  AR
# Epoch_topo       =  58250.192686604059
# Epoch_bary       =  N/A
# T_sample         =  0.002
# Data Folded      =  7208960
# Data Avg         =  0.431613044539171
# Data StdDev      =  8.19373471469733 
# Profile Bins     =  512
# Profile Avg      =  6077.12507980519 
# Profile StdDev   =  972.261807916825 
# Reduced chi-sqr  =  0.946
# Prob(Noise)      <  0.804   (~0.0 sigma)
# P_topo (ms)      =  714.536297503943  +/- 2.53e-05
# P'_topo (s/s)    =  -0                +/- 1.36e-11
# P''_topo (s/s^2) =  0                 +/- 6.1e-15
# P_bary (ms)      =  N/A
# P'_bary (s/s)    =  N/A
# P''_bary (s/s^2) =  N/A
# P_orb (s)        =  N/A
# asin(i)/c (s)    =  N/A
# eccentricity     =  N/A
# w (rad)          =  N/A
# T_peri           =  N/A
######################################################
   0  6778.068
   1  6499.732
   2  6128.255
   3  5944.072
   4  5989.827
   5  6255.111
   6  6309.903
   7  6162.032
   8  6488.227
   9  6127.089
  10  5707.153
  11  5419.658
  12  5422.426
  13  5862.859
  14  5591.082
  15  5864.759
  16  6296.915
  17  6572.208
  18  5701.416
  19  5264.822
  20  5798.216
  21  5747.654
  22  6329.525
  23  6456.847
  24  6214.057
  25  6051.567
  26  5907.682
  27  5797.27
  28  5650.075
  29  5969.363
  30  5890.377
  31  6915.451
  32  6303.815
  33  6138.314
  34  6010.9
  35  5430.974
  36  5823.42
  37  5850.162
  38  6889.364
  39  6817.51
  40  7187.839
  41  7242.411
  42  6117.537
  43  5560.162
  44  5365.883
  45  5203.363
  46  5919.009
  47  6864.152
  48  7396.228
  49  7512.81
  50  6899.35
  51  6227.479
  52  5661.395
  53  5120.356
  54  5489.416
  55  6065.752
  56  6763.234
  57  6908.833
  58  6910.08
  59  6076.015
  60  5630.62
  61  5162.828
  62  4810.085
  63  5803.143
  64  6666.243
  65  7166.095
  66  6877.913
  67  6328.242
  68  5776.867
  69  5280.845
  70  5684.284
  71  5763.02
  72  6235.667
  73  7078.007
  74  6907.486
  75  6603.796
  76  5989.229
  77  4896.302
  78  4832.069
  79  5785.84
  80  5853.953
  81  6582.616
  82  7258.235
  83  6983.087
  84  6127.682
  85  5790.784
  86  5697.258
  87  5409.698
  88  5639.43
  89  6392.416
  90  6844.508
  91  6952.339
  92  5980.464
  93  5456.748
  94  5533.661
  95  5692.463
  96  5451.442
  97  5783.785
  98  5969.806
  99  5867.437
 100  5861.676
 101  5853.092
 102  5570.133
 103  5634.009
 104  5691.481
 105  6059.375
 106  6457.702
 107  6130.018
 108  5972.406
 109  5689.277
 110  5426.225
 111  4856.469
 112  5774.262
 113  5790.599
 114  6589.315
 115  6603.317
 116  6001.328
 117  5451.228
 118  5435.907
 119  5666.652
 120  5718.275
 121  6830.412
 122  6996.743
 123  6727.042
 124  6392.109
 125  5495.713
 126  4841.675
 127  4681.901
 128  5168.051
 129  5604.642
 130  6841.538
 131  6617.794
 132  6469.591
 133  5969.11
 134  4854.397
 135  4567.126
 136  4922.669
 137  5995.901
 138  6307.076
 139  6675.573
 140  6938.75
 141  6395.213
 142  5147.497
 143  4864.947
 144  5022.324
 145  4767.664
 146  6067.945
 147  6261.311
 148  6770.369
 149  6488.137
 150  6543.194
 151  5808.565
 152  5110.749
 153  5403.078
 154  6253.146
 155  6558.4
 156  6964.55
 157  7097.958
 158  6673.417
 159  5649.051
 160  5005.367
 161  5052.792
 162  6135.091
 163  6138.817
 164  6980.518
 165  7061.904
 166  6617.7
 167  5759.689
 168  5476.346
 169  5463.524
 170  5607.35
 171  6304.288
 172  6463.966
 173  6875.445
 174  6496.805
 175  6197.834
 176  5714.135
 177  5205.031
 178  5176.309
 179  5562.047
 180  6049.058
 181  6650.294
 182  6769.196
 183  6646.795
 184  5806.352
 185  5453.283
 186  5860.524
 187  6017.119
 188  6528.115
 189  6022.867
 190  6069.554
 191  5642.921
 192  4986.325
 193  4903.028
 194  5303.536
 195  5664.938
 196  5923.835
 197  6976.735
 198  6493.085
 199  5962.675
 200  5640.675
 201  5367.175
 202  5893.847
 203  5419.976
 204  6854.55
 205  7149.562
 206  6597.768
 207  6259.316
 208  5664.435
 209  5152.098
 210  5341.202
 211  6173.328
 212  6372.88
 213  7185.665
 214  6151.778
 215  5790.986
 216  5314.115
 217  4685.681
 218  5494.881
 219  5376.487
 220  6177.007
 221  6856.057
 222  7017.471
 223  6340.761
 224  6123.194
 225  5505.738
 226  4790.142
 227  5175.491
 228  5462.948
 229  6199.958
 230  6685.312
 231  7076.143
 232  5951.208
 233  4903.066
 234  4375.259
 235  4889.432
 236  5940.894
 237  6744.171
 238  7311.517
 239  7084.684
 240  6861.576
 241  5806.521
 242  5481.772
 243  5180.953
 244  5669.154
 245  6122.943
 246  6051.983
 247  6982.489
 248  7113.279
 249  6352.938
 250  5460.537
 251  5277.154
 252  5551.235
 253  6190.521
 254  6298.494
 255  6933.391
 256  6829.082
 257  6599.95
 258  5959.552
 259  5603.476
 260  5288.927
 261  5477.106
 262  6158.906
 263  6512.686
 264  6901.254
 265  6418.981
 266  6088.166
 267  6160.885
 268  5714.623
 269  6174.585
 270  6210.291
 271  6751.287
 272  6891.805
 273  6429.247
 274  6015.321
 275  5274.045
 276  4958.032
 277  5551.552
 278  6425.65
 279  6521.996
 280  6887.054
 281  6760.705
 282  6358.571
 283  5883.181
 284  5449.625
 285  6067.612
 286  6357.016
 287  7238.855
 288  7245.928
 289  6738.35
 290  6228.703
 291  5660.229
 292  5459.165
 293  5214.501
 294  6229.329
 295  6555.78
 296  7483.832
 297  7381.875
 298  7829.473
 299  7963.951
 300  7457.855
 301  8013.463
 302  7185.191
 303  7151.916
 304  7254.929
 305  6806.585
 306  6363.281
 307  6001.075
 308  5519.344
 309  4661.966
 310  5285.721
 311  5892.028
 312  6694.348
 313  7432.174
 314  7047.927
 315  5883.114
 316  4953.476
 317  4853.529
 318  5061.933
 319  6438.15
 320  6908.606
 321  7108.119
 322  7167.707
 323  6389.786
 324  5327.438
 325  5022.725
 326  5577.473
 327  5602.016
 328  6585.405
 329  6650.208
 330  6859.725
 331  6871.476
 332  5905.441
 333  5977.81
 334  5761.646
 335  5501.549
 336  5909.31
 337  6230.672
 338  6797.601
 339  6833.082
 340  6322.957
 341  5871.804
 342  5395.758
 343  5229.548
 344  5678.073
 345  6520.477
 346  7270.148
 347  6806.024
 348  6249.567
 349  5650.302
 350  5312.285
 351  5515.844
 352  7118.857
 353  7428.658
 354  7011.471
 355  6641.074
 356  6484.947
 357  6098.457
 358  5239.11
 359  5279.367
 360  5678.523
 361  6857.662
 362  6512.23
 363  6905.743
 364  6558.321
 365  5529.537
 366  5868.452
 367  5088.732
 368  5484.87
 369  6209.819
 370  7203.35
 371  6969.811
 372  6607.26
 373  6130.718
 374  5072.604
 375  5415.585
 376  5735.928
 377  6588.382
 378  6620.456
 379  6914.402
 380  6325.401
 381  5876.877
 382  5232.558
 383  5102.67
 384  5946.302
 385  6256.729
 386  6847.514
 387  7271.69
 388  6669.003
 389  5718.409
 390  5517.809
 391  5517.566
 392  5223.557
 393  5811.988
 394  5874.021
 395  6834.744
 396  7038.125
 397  6589.876
 398  5943.217
 399  5057.406
 400  5160.308
 401  5513.172
 402  6475.918
 403  7042.681
 404  7171.235
 405  7092.394
 406  6178.376
 407  5575.04
 408  5262.58
 409  5165.78
 410  5379.023
 411  5949.118
 412  6734.106
 413  6721.901
 414  6509.363
 415  5921.33
 416  5917.884
 417  5575.591
 418  5716.61
 419  6860.393
 420  7245.939
 421  6973.178
 422  6303.02
 423  5694.732
 424  5802.372
 425  5518.355
 426  5551.631
 427  5991.221
 428  6505.947
 429  6967.333
 430  6338.552
 431  5858.163
 432  5477.122
 433  5321.304
 434  5772.078
 435  6851.399
 436  6676.437
 437  7012.639
 438  6384.119
 439  5642.866
 440  5535.637
 441  5219.25
 442  5218.737
 443  5626.354
 444  6633.414
 445  6620.049
 446  6624.861
 447  6022.913
 448  5380.261
 449  6081.856
 450  5279.689
 451  6360.618
 452  6875.959
 453  6244.538
 454  6379.835
 455  6650.908
 456  5816.216
 457  5075.304
 458  5534.461
 459  5528.428
 460  6205.291
 461  6648.52
 462  6654.285
 463  6001.324
 464  5205.725
 465  5041.884
 466  5106.26
 467  6145.116
 468  6597.022
 469  7803.846
 470  7315.888
 471  6171.447
 472  5861.2
 473  5238.458
 474  5068.812
 475  5147.689
 476  5977.238
 477  6416.408
 478  7421.173
 479  7030.871
 480  6300.757
 481  5194.375
 482  4726.127
 483  5174.594
 484  5686.19
 485  6452.19
 486  6712.593
 487  6753.449
 488  6876.848
 489  6276.806
 490  5370.843
 491  5058.425
 492  5140.263
 493  5294.412
 494  6159.864
 495  6509.512
 496  6620.633
 497  6054.659
 498  5332.596
 499  5091.119
 500  5212.875
 501  5841.101
 502  6685.483
 503  6670.042
 504  6298.205
 505  6014.398
 506  5920.163
 507  5023.152
 508  5004.756
 509  5519.271
 510  6221.355
 511  6871.586
