# Input file       =  1210839012.112088_cleaned.dat
# Candidate        =  PSR_0332+5434
# Telescope        =  AR
# Epoch_topo       =  58258.340637871392
# Epoch_bary       =  N/A
# T_sample         =  0.002
# Data Folded      =  7340032
# Data Avg         =  0.0559801566151442
# Data StdDev      =  1.00003272102084 
# Profile Bins     =  512
# Profile Avg      =  802.548256081352 
# Profile StdDev   =  119.736954163944 
# Reduced chi-sqr  =  1.226
# Prob(Noise)      <  0.000349   (~3.4 sigma)
# P_topo (ms)      =  714.528358851179  +/- 0.00019
# P'_topo (s/s)    =  -0                +/- 1e-10
# P''_topo (s/s^2) =  0                 +/- 4.43e-14
# P_bary (ms)      =  N/A
# P'_bary (s/s)    =  N/A
# P''_bary (s/s^2) =  N/A
# P_orb (s)        =  N/A
# asin(i)/c (s)    =  N/A
# eccentricity     =  N/A
# w (rad)          =  N/A
# T_peri           =  N/A
######################################################
   0  772.2334
   1  858.4933
   2  835.2731
   3  757.6105
   4  812.733
   5  737.0801
   6  767.1019
   7  820.7491
   8  717.325
   9  737.1883
  10  772.6222
  11  745.3218
  12  788.95
  13  858.6708
  14  835.7797
  15  814.4759
  16  797.6788
  17  784.6202
  18  797.7236
  19  851.5793
  20  850.4003
  21  893.4095
  22  935.3503
  23  859.9378
  24  826.1661
  25  828.9197
  26  839.0413
  27  943.5637
  28  958.822
  29  910.7614
  30  879.8636
  31  914.8442
  32  859.748
  33  897.1028
  34  942.4929
  35  909.0275
  36  865.2216
  37  840.865
  38  766.683
  39  815.1539
  40  840.0148
  41  775.0886
  42  801.3293
  43  787.7738
  44  887.5938
  45  847.1361
  46  794.1475
  47  789.6378
  48  831.4335
  49  848.7831
  50  852.9904
  51  817.5726
  52  826.3907
  53  785.8232
  54  767.1199
  55  818.0164
  56  782.1089
  57  733.404
  58  694.4288
  59  721.6467
  60  736.9681
  61  781.9479
  62  850.6378
  63  887.634
  64  808.3002
  65  899.0446
  66  824.8208
  67  834.5187
  68  872.408
  69  963.7095
  70  915.5423
  71  862.2354
  72  755.1807
  73  730.1835
  74  751.4184
  75  786.6681
  76  870.7255
  77  775.3776
  78  742.6436
  79  835.8035
  80  810.4239
  81  852.8608
  82  785.7934
  83  806.581
  84  803.1452
  85  832.5426
  86  688.9034
  87  718.4068
  88  852.2871
  89  790.4668
  90  729.3508
  91  711.0533
  92  697.6243
  93  782.4332
  94  833.8864
  95  760.4352
  96  761.6108
  97  806.5499
  98  933.0662
  99  812.3358
 100  866.6328
 101  875.5828
 102  830.5573
 103  819.3098
 104  739.924
 105  774.7673
 106  800.6551
 107  807.0587
 108  875.2023
 109  835.1884
 110  726.7983
 111  759.0707
 112  817.4775
 113  779.4939
 114  701.1909
 115  810.7659
 116  754.6408
 117  770.3533
 118  824.1672
 119  788.2192
 120  691.7199
 121  606.6163
 122  691.3723
 123  695.342
 124  629.7733
 125  629.0016
 126  645.9226
 127  593.2192
 128  637.6049
 129  674.2749
 130  684.8657
 131  713.8634
 132  607.6771
 133  652.5168
 134  722.2717
 135  693.4581
 136  735.0647
 137  772.6329
 138  762.1044
 139  777.4467
 140  790.6523
 141  883.58
 142  867.1364
 143  800.7343
 144  834.1259
 145  773.8575
 146  852.358
 147  768.4211
 148  720.8511
 149  807.4952
 150  763.7048
 151  764.9856
 152  733.6661
 153  705.9901
 154  798.1335
 155  808.1533
 156  704.7085
 157  726.788
 158  751.5603
 159  754.6658
 160  679.1517
 161  731.8051
 162  749.5317
 163  782.2036
 164  780.6354
 165  691.2454
 166  673.2313
 167  776.0041
 168  760.4838
 169  657.0982
 170  653.1691
 171  722.8975
 172  678.791
 173  588.7443
 174  635.0774
 175  730.3557
 176  642.3414
 177  685.7009
 178  613.7213
 179  634.1765
 180  786.5734
 181  787.3063
 182  684.3055
 183  760.1219
 184  848.0998
 185  723.3246
 186  676.8214
 187  752.3448
 188  726.1231
 189  688.1936
 190  750.3118
 191  762.8041
 192  745.5961
 193  837.8693
 194  778.3808
 195  783.6101
 196  844.8558
 197  838.0218
 198  898.9692
 199  867.362
 200  810.6765
 201  733.8438
 202  806.5306
 203  834.064
 204  748.9396
 205  822.8585
 206  802.8318
 207  702.6769
 208  683.6508
 209  777.5446
 210  793.7306
 211  812.8267
 212  788.6578
 213  689.2567
 214  896.21
 215  1080.443
 216  1212.851
 217  1325.921
 218  1447.175
 219  1325.489
 220  1211.006
 221  1075.934
 222  927.9311
 223  749.5366
 224  805.0893
 225  760.4058
 226  702.603
 227  830.1149
 228  824.4612
 229  835.1141
 230  860.3817
 231  987.0129
 232  1037.456
 233  1012.613
 234  953.0167
 235  877.4142
 236  870.3433
 237  864.368
 238  964.3646
 239  921.9576
 240  832.1063
 241  883.6473
 242  868.099
 243  865.4058
 244  857.4494
 245  948.8537
 246  990.088
 247  927.6208
 248  826.9762
 249  823.0291
 250  826.3505
 251  785.2542
 252  747.6563
 253  720.4868
 254  710.3548
 255  660.3056
 256  742.8877
 257  810.0652
 258  835.7172
 259  762.6587
 260  768.3768
 261  818.6913
 262  839.3263
 263  786.4259
 264  827.3872
 265  812.215
 266  775.9852
 267  863.2999
 268  872.1091
 269  882.3137
 270  886.0572
 271  871.9834
 272  732.7918
 273  792.7315
 274  879.8296
 275  790.3961
 276  844.7444
 277  866.0306
 278  862.0452
 279  893.5649
 280  938.8327
 281  945.9755
 282  931.5815
 283  841.0537
 284  881.5985
 285  886.6562
 286  883.1587
 287  846.4161
 288  822.7092
 289  755.7906
 290  722.0527
 291  669.9119
 292  753.2828
 293  829.4337
 294  811.205
 295  797.832
 296  646.5822
 297  758.1363
 298  753.7752
 299  736.2238
 300  750.4543
 301  772.1769
 302  826.0107
 303  843.0753
 304  786.8973
 305  784.799
 306  850.6403
 307  855.3706
 308  778.1232
 309  740.2931
 310  865.907
 311  959.9501
 312  877.2676
 313  825.026
 314  844.5843
 315  941.4804
 316  976.3373
 317  983.2672
 318  840.3923
 319  868.0868
 320  894.2762
 321  838.361
 322  885.3616
 323  919.0157
 324  865.9711
 325  920.6674
 326  907.2889
 327  760.0621
 328  885.258
 329  944.7004
 330  826.9136
 331  805.8792
 332  950.0076
 333  944.8533
 334  803.9143
 335  708.0366
 336  778.2687
 337  771.1404
 338  910.6382
 339  924.3773
 340  924.6657
 341  843.8008
 342  826.6349
 343  840.6395
 344  818.2729
 345  791.6536
 346  839.4056
 347  858.942
 348  806.1553
 349  872.8779
 350  799.6273
 351  763.264
 352  844.5922
 353  800.5198
 354  671.708
 355  718.9828
 356  664.8638
 357  793.2449
 358  853.573
 359  875.6283
 360  870.7861
 361  708.6448
 362  675.6213
 363  805.2374
 364  827.7531
 365  783.4169
 366  680.4785
 367  784.0262
 368  842.0242
 369  801.6844
 370  758.6849
 371  778.151
 372  729.5417
 373  780.4178
 374  718.5025
 375  695.5795
 376  731.7148
 377  630.4311
 378  636.4805
 379  668.9504
 380  619.6585
 381  692.9475
 382  721.4662
 383  641.1227
 384  606.7538
 385  559.2202
 386  599.4424
 387  649.8967
 388  672.5789
 389  620.3792
 390  621.2426
 391  647.3595
 392  682.0172
 393  763.2355
 394  802.8362
 395  769.777
 396  676.1371
 397  701.7356
 398  723.9338
 399  844.0204
 400  871.0311
 401  851.0132
 402  799.3475
 403  744.2371
 404  810.7454
 405  737.4806
 406  793.9254
 407  953.7412
 408  923.5526
 409  909.4495
 410  927.2955
 411  941.7966
 412  825.9696
 413  827.6581
 414  929.1392
 415  908.2006
 416  896.361
 417  965.5187
 418  907.5942
 419  782.9149
 420  714.4344
 421  741.6486
 422  726.3955
 423  707.7144
 424  758.9072
 425  798.856
 426  792.5599
 427  732.8527
 428  705.9014
 429  812.0107
 430  784.6125
 431  673.611
 432  614.9363
 433  739.7842
 434  877.23
 435  873.9675
 436  779.017
 437  745.7462
 438  792.943
 439  821.9182
 440  756.264
 441  782.1622
 442  833.4515
 443  849.5166
 444  795.9429
 445  843.8015
 446  742.0195
 447  777.1146
 448  752.8782
 449  788.2075
 450  846.7617
 451  891.7771
 452  858.9072
 453  813.8692
 454  746.3572
 455  777.8535
 456  758.6249
 457  632.5118
 458  729.6426
 459  841.1321
 460  746.7262
 461  762.5931
 462  813.7881
 463  829.7784
 464  789.6337
 465  779.8223
 466  824.1087
 467  838.566
 468  801.3315
 469  801.0212
 470  759.3516
 471  751.4218
 472  821.9529
 473  864.0818
 474  867.3941
 475  802.9139
 476  826.9011
 477  917.7171
 478  753.3452
 479  735.2428
 480  818.2354
 481  843.4941
 482  867.2706
 483  825.6732
 484  714.6203
 485  768.227
 486  832.8117
 487  801.8159
 488  793.0526
 489  805.756
 490  759.2796
 491  757.3666
 492  768.7842
 493  743.6147
 494  828.5547
 495  858.2205
 496  805.1154
 497  738.4948
 498  786.3549
 499  811.0739
 500  851.3182
 501  879.0339
 502  910.2133
 503  861.9683
 504  841.869
 505  779.7867
 506  789.0898
 507  720.1383
 508  838.3873
 509  845.108
 510  862.8878
 511  718.4034
