# Input file       =  1210250771.112735_cleaned.dat
# Candidate        =  PSR_0332+5434
# Telescope        =  AR
# Epoch_topo       =  58251.532292971468
# Epoch_bary       =  N/A
# T_sample         =  0.002
# Data Folded      =  7340032
# Data Avg         =  0.183122314267426
# Data StdDev      =  4.37375863497485 
# Profile Bins     =  1024
# Profile Avg      =  1312.48944075939 
# Profile StdDev   =  370.300084568473 
# Reduced chi-sqr  =  0.892
# Prob(Noise)      <  0.994   (~0.0 sigma)
# P_topo (ms)      =  714.535352032487  +/- 0.000473
# P'_topo (s/s)    =  -0                +/- 2.5e-10
# P''_topo (s/s^2) =  0                 +/- 1.1e-13
# P_bary (ms)      =  N/A
# P'_bary (s/s)    =  N/A
# P''_bary (s/s^2) =  N/A
# P_orb (s)        =  N/A
# asin(i)/c (s)    =  N/A
# eccentricity     =  N/A
# w (rad)          =  N/A
# T_peri           =  N/A
######################################################
   0  1290.981
   1  1247.771
   2  1189.216
   3  1162.587
   4  1050.813
   5  908.6911
   6  975.7127
   7  1162.183
   8  1221.937
   9  1202.724
  10  1230.427
  11  1126.959
  12  1077.141
  13  1125.359
  14  1349.755
  15  1540.662
  16  1620.502
  17  1530.286
  18  1524.048
  19  1383.951
  20  1383.665
  21  1337.906
  22  1460.021
  23  1407.203
  24  1425.801
  25  1406.527
  26  1483.791
  27  1469.573
  28  1511.821
  29  1470.837
  30  1370.214
  31  1327.526
  32  1377.202
  33  1459.865
  34  1602.449
  35  1677.918
  36  1729.436
  37  1568.495
  38  1507.981
  39  1431.991
  40  1501.285
  41  1484.283
  42  1525.181
  43  1506.53
  44  1464.384
  45  1510.744
  46  1548.807
  47  1512.839
  48  1500.845
  49  1510.756
  50  1590.896
  51  1546.18
  52  1634.407
  53  1537.779
  54  1537.595
  55  1471.149
  56  1562.152
  57  1588.051
  58  1594.027
  59  1561.081
  60  1474.95
  61  1485.267
  62  1466.273
  63  1478.33
  64  1384.995
  65  1361.269
  66  1439.079
  67  1463.763
  68  1336.97
  69  1159.617
  70  1060.743
  71  1007.183
  72  918.1193
  73  978.2445
  74  1082.161
  75  1222.707
  76  1270.758
  77  1338.557
  78  1319.395
  79  1218.054
  80  1166.649
  81  1232.002
  82  1368.179
  83  1361.625
  84  1300.522
  85  1215.193
  86  1138.845
  87  1011.579
  88  1056.759
  89  1201.85
  90  1275.933
  91  1261.517
  92  1161.419
  93  1228.93
  94  1238.033
  95  1346.819
  96  1350.595
  97  1325.932
  98  1329.567
  99  1239.721
 100  1320.772
 101  1313.884
 102  1345.141
 103  1324.91
 104  1399.298
 105  1466.547
 106  1486.82
 107  1609.065
 108  1581.427
 109  1535.243
 110  1437.866
 111  1506.638
 112  1465.432
 113  1360.962
 114  1318.248
 115  1346.132
 116  1427.472
 117  1491.049
 118  1570.885
 119  1488.823
 120  1338.164
 121  1276.418
 122  1368.038
 123  1369.723
 124  1306.853
 125  1337.935
 126  1483.471
 127  1469.701
 128  1416.059
 129  1348.407
 130  1418.144
 131  1405.959
 132  1360.108
 133  1345.685
 134  1403.687
 135  1529.678
 136  1600.084
 137  1524.848
 138  1414.189
 139  1426.356
 140  1413.215
 141  1323.499
 142  1090.602
 143  1042.877
 144  1167.518
 145  1356.534
 146  1295.964
 147  1231.466
 148  1140.77
 149  1193.55
 150  1193.03
 151  1237.872
 152  1276.7
 153  1312.105
 154  1191.681
 155  1196.4
 156  1202.372
 157  1227.149
 158  1299.306
 159  1394.417
 160  1537.442
 161  1425.324
 162  1387.816
 163  1303.975
 164  1539.637
 165  1553.29
 166  1544.893
 167  1390.181
 168  1330.271
 169  1310.333
 170  1408.224
 171  1366.076
 172  1260.531
 173  1193.456
 174  1192.244
 175  1175.274
 176  1178.407
 177  1260.347
 178  1387.554
 179  1427.159
 180  1395.622
 181  1303.64
 182  1184.364
 183  1250.531
 184  1402.904
 185  1521.371
 186  1369.061
 187  1290.625
 188  1315.356
 189  1449.429
 190  1520.871
 191  1477.458
 192  1416.552
 193  1213.166
 194  1251.158
 195  1218.68
 196  1300.718
 197  1247.911
 198  1254.662
 199  1250.459
 200  1288.677
 201  1274.725
 202  1319.819
 203  1458.199
 204  1588.923
 205  1588.291
 206  1535.23
 207  1397.768
 208  1388.569
 209  1397.253
 210  1350.299
 211  1414.263
 212  1392.096
 213  1402.427
 214  1351.35
 215  1411.81
 216  1471.329
 217  1410.164
 218  1394.169
 219  1388.863
 220  1471.527
 221  1535.499
 222  1527.362
 223  1600.234
 224  1494.033
 225  1425.99
 226  1290.299
 227  1150.709
 228  1207.182
 229  1318.107
 230  1347.424
 231  1277.358
 232  1256.103
 233  1240.391
 234  1287.297
 235  1317.861
 236  1391.834
 237  1305.087
 238  1306.189
 239  1225.415
 240  1262.102
 241  1181.193
 242  1185.378
 243  1150.712
 244  1164.648
 245  1078.75
 246  949.2124
 247  985.0721
 248  1094.353
 249  1190.031
 250  1323.587
 251  1304.621
 252  1096.634
 253  923.5626
 254  965.0696
 255  1140.467
 256  1308.965
 257  1282.406
 258  1322.352
 259  1312.368
 260  1272.351
 261  1091.548
 262  1037.051
 263  954.9632
 264  988.0792
 265  1007.159
 266  1057.565
 267  1031.265
 268  1026.214
 269  1005.184
 270  1083.941
 271  1138.569
 272  1196.592
 273  1203.428
 274  1223.324
 275  1222.33
 276  1228.031
 277  1289.702
 278  1333.219
 279  1355.611
 280  1334.151
 281  1332.848
 282  1310.021
 283  1319.1
 284  1320.967
 285  1363.679
 286  1468.808
 287  1517.228
 288  1557.05
 289  1479.713
 290  1439.986
 291  1250.496
 292  1206.055
 293  1191.728
 294  1232.454
 295  1285.787
 296  1385.141
 297  1434.859
 298  1480.001
 299  1420.434
 300  1395.812
 301  1446.453
 302  1401.679
 303  1445.798
 304  1424.243
 305  1452.993
 306  1509.609
 307  1490.014
 308  1467.376
 309  1364.428
 310  1271.406
 311  1173.093
 312  1122.924
 313  1200.925
 314  1142.894
 315  1160.753
 316  1173.115
 317  1227.928
 318  1242.234
 319  1210.509
 320  1201.598
 321  1249.31
 322  1154.024
 323  1114.09
 324  966.2925
 325  1092.085
 326  1168.805
 327  1169.218
 328  1046.323
 329  946.5695
 330  946.2899
 331  977.975
 332  1043.746
 333  1065.776
 334  1037.126
 335  950.563
 336  953.6454
 337  962.7273
 338  1065.856
 339  1042.898
 340  1007.128
 341  918.1592
 342  881.4937
 343  869.2877
 344  907.2452
 345  940.7335
 346  999.2419
 347  936.6918
 348  957.4949
 349  1006.568
 350  985.7092
 351  972.3863
 352  895.6035
 353  970.656
 354  893.7015
 355  877.5013
 356  968.2593
 357  1050.18
 358  1187.433
 359  1186.573
 360  1142.174
 361  1024.151
 362  1030.898
 363  1240.66
 364  1268.477
 365  1347.489
 366  1372.488
 367  1333.105
 368  1257.296
 369  1232.809
 370  1290.842
 371  1296.037
 372  1290.397
 373  1215.786
 374  1162.155
 375  1104.185
 376  1102.37
 377  1159.422
 378  1301.571
 379  1214.531
 380  1116.291
 381  954.683
 382  1010.757
 383  966.9287
 384  1136.103
 385  1181.945
 386  1208.168
 387  1269.005
 388  1306.82
 389  1230.551
 390  1116.547
 391  1130.764
 392  1143.99
 393  1153.302
 394  1022.953
 395  1003.956
 396  876.8226
 397  867.8157
 398  892.0831
 399  999.2276
 400  985.8483
 401  908.4095
 402  1130.038
 403  1221.489
 404  1168.077
 405  1025.379
 406  1197.593
 407  1393.075
 408  1421.192
 409  1241.824
 410  1192.621
 411  1100.629
 412  1164.963
 413  1136.571
 414  1214.084
 415  1038.181
 416  1035.769
 417  1076.943
 418  1144.215
 419  1121.127
 420  1085.22
 421  1148.042
 422  1152.683
 423  1256.807
 424  1251.892
 425  1249.145
 426  1178.301
 427  1199.214
 428  1122.777
 429  1034.092
 430  995.8348
 431  1112.405
 432  1185.716
 433  1139.409
 434  1229.13
 435  1279.439
 436  1319.143
 437  1352.151
 438  1359.614
 439  1329.5
 440  1300.514
 441  1427.965
 442  1552.843
 443  1609.911
 444  1543.833
 445  1483.865
 446  1536.099
 447  1499.1
 448  1379.399
 449  1302.241
 450  1295.037
 451  1302.283
 452  1305.434
 453  1262.375
 454  1302.479
 455  1424.896
 456  1566.334
 457  1531.011
 458  1492.587
 459  1385.923
 460  1404.885
 461  1463.073
 462  1492.46
 463  1348.765
 464  1288.477
 465  1263.7
 466  1250.979
 467  1223.237
 468  1326.315
 469  1385.373
 470  1423.091
 471  1475.228
 472  1441.798
 473  1431.728
 474  1368.131
 475  1334.693
 476  1293.304
 477  1370.44
 478  1422.921
 479  1368.718
 480  1256.362
 481  1354.275
 482  1529.075
 483  1615.794
 484  1587.229
 485  1440.65
 486  1380.106
 487  1433.591
 488  1462.14
 489  1520.226
 490  1541.972
 491  1558.529
 492  1478.777
 493  1379.505
 494  1284.446
 495  1243.58
 496  1252.675
 497  1330.924
 498  1312.451
 499  1348.807
 500  1195.507
 501  1109.291
 502  1106.264
 503  1411.886
 504  1651.521
 505  1666.197
 506  1483.43
 507  1309.075
 508  1329.646
 509  1325.707
 510  1228.81
 511  1050.24
 512  1077.371
 513  1175.084
 514  1259.603
 515  1197.993
 516  1129.5
 517  1292.443
 518  1390.854
 519  1392.296
 520  1165.515
 521  1174.495
 522  1277.006
 523  1320.764
 524  1371.943
 525  1314.112
 526  1320.39
 527  1224.208
 528  1145.635
 529  1096.661
 530  1110.131
 531  1245.854
 532  1159.834
 533  1143.149
 534  1118.662
 535  1274.879
 536  1375.31
 537  1255.339
 538  1114.397
 539  1173.041
 540  1259.078
 541  1311.577
 542  1239.602
 543  1281.344
 544  1311.559
 545  1321.696
 546  1299.827
 547  1314.106
 548  1332.198
 549  1312.197
 550  1323.619
 551  1345.178
 552  1422.276
 553  1527.685
 554  1538.981
 555  1441.894
 556  1294.188
 557  1357.567
 558  1309.013
 559  1278.683
 560  1385.458
 561  1506.641
 562  1596.341
 563  1429.191
 564  1386.041
 565  1368.574
 566  1369.609
 567  1352.051
 568  1343.814
 569  1263.164
 570  1317.17
 571  1349.077
 572  1322.362
 573  1163.398
 574  1118.207
 575  1181.436
 576  1161.563
 577  1241.392
 578  1325.844
 579  1467.235
 580  1499.292
 581  1540.564
 582  1497.493
 583  1483.432
 584  1440.965
 585  1357.212
 586  1338.445
 587  1405.269
 588  1555.227
 589  1656.819
 590  1605.685
 591  1623.193
 592  1713.052
 593  1817.186
 594  1893.656
 595  1974.21
 596  2123.287
 597  2338.696
 598  2411.736
 599  2431.656
 600  2449.009
 601  2437.494
 602  2372.011
 603  2191.901
 604  2077.56
 605  1982.739
 606  1770.551
 607  1490.932
 608  1409.253
 609  1394.19
 610  1309.585
 611  1241.464
 612  1183.923
 613  1267.05
 614  1294.47
 615  1449.768
 616  1463.488
 617  1511.63
 618  1539.722
 619  1522.486
 620  1493.803
 621  1460.361
 622  1484.944
 623  1496.259
 624  1542.674
 625  1533.347
 626  1618.611
 627  1650.443
 628  1645.552
 629  1427.007
 630  1469.759
 631  1423.44
 632  1490.689
 633  1584.559
 634  1573.844
 635  1467.328
 636  1401.757
 637  1436.565
 638  1489.375
 639  1561.876
 640  1553.332
 641  1479.272
 642  1475.609
 643  1517.958
 644  1358.178
 645  1272.156
 646  1205.991
 647  1265.033
 648  1211.494
 649  1164.019
 650  1183.064
 651  1246.188
 652  1268.474
 653  1223.703
 654  1170.173
 655  1174.384
 656  1289.195
 657  1332.796
 658  1305.983
 659  1254.733
 660  1232.895
 661  1231.617
 662  1346.682
 663  1423.183
 664  1305.635
 665  1262.779
 666  1327.204
 667  1318.482
 668  1326.947
 669  1394.651
 670  1501.927
 671  1466.075
 672  1497.221
 673  1391.629
 674  1333.308
 675  1400.224
 676  1494.483
 677  1460.501
 678  1449.916
 679  1408.877
 680  1419.615
 681  1407.959
 682  1360.766
 683  1322.605
 684  1284.703
 685  1390.789
 686  1367.371
 687  1441.499
 688  1464.907
 689  1523.804
 690  1504.906
 691  1413.571
 692  1398.499
 693  1435.72
 694  1526.761
 695  1591.993
 696  1470.099
 697  1346.928
 698  1310.276
 699  1355.559
 700  1356.62
 701  1327.055
 702  1477.066
 703  1492.743
 704  1461.896
 705  1423.448
 706  1425.484
 707  1410.523
 708  1402.914
 709  1320.019
 710  1411.91
 711  1438.99
 712  1471.947
 713  1352.601
 714  1477.187
 715  1501.323
 716  1614.238
 717  1494.724
 718  1378.396
 719  1340.42
 720  1376.491
 721  1323.604
 722  1225.221
 723  1176.096
 724  1289.242
 725  1354.969
 726  1350.739
 727  1233.788
 728  1087.047
 729  1028.89
 730  1055.54
 731  1164.782
 732  1242.266
 733  1314.04
 734  1301.529
 735  1216.149
 736  1188.629
 737  1147.715
 738  1243.913
 739  1250.046
 740  1312.132
 741  1287.232
 742  1155.106
 743  1136.77
 744  1071.625
 745  1062.216
 746  830.109
 747  805.6511
 748  894.8215
 749  1051.254
 750  1033.945
 751  1120.666
 752  1205.483
 753  1314.608
 754  1288.014
 755  1209.818
 756  1082.828
 757  1055.06
 758  1158.487
 759  1190.295
 760  1094.954
 761  977.1928
 762  987.7856
 763  1118.866
 764  1114.953
 765  1104.445
 766  1071.005
 767  1020.967
 768  1025.239
 769  1110.708
 770  1079.716
 771  1078.654
 772  1072.535
 773  1192.542
 774  1290.818
 775  1359.078
 776  1251.119
 777  1123.343
 778  1103.644
 779  1116.705
 780  1362.79
 781  1455.263
 782  1430.286
 783  1272.164
 784  1205.016
 785  1204.597
 786  1241.51
 787  1266.081
 788  1320.793
 789  1388.059
 790  1490.672
 791  1438.039
 792  1318.468
 793  1374.986
 794  1416.554
 795  1474.505
 796  1448.715
 797  1536.767
 798  1524.741
 799  1583.432
 800  1625.807
 801  1666.394
 802  1583.625
 803  1522.985
 804  1475.765
 805  1465.379
 806  1478.277
 807  1520.091
 808  1510.904
 809  1499.123
 810  1466.718
 811  1512.786
 812  1445.371
 813  1467.581
 814  1454.664
 815  1451.383
 816  1353.937
 817  1394.311
 818  1359.888
 819  1346.203
 820  1223.31
 821  1154.639
 822  1112.914
 823  1168.642
 824  1266.024
 825  1319.81
 826  1368.059
 827  1401.057
 828  1437.833
 829  1259.096
 830  1149.534
 831  1079.92
 832  1044.643
 833  1088.347
 834  1091.509
 835  1143.889
 836  1118.467
 837  1141.533
 838  1159.99
 839  1256.273
 840  1194.04
 841  1233.174
 842  1228.952
 843  1250.036
 844  1149.984
 845  1212.191
 846  1163.836
 847  1158.11
 848  1103.532
 849  1210.292
 850  1239.068
 851  1184.833
 852  1255.659
 853  1350.592
 854  1494.039
 855  1449.68
 856  1421.996
 857  1271.061
 858  1160.985
 859  1227.972
 860  1394.949
 861  1503.849
 862  1575.618
 863  1559.079
 864  1451.468
 865  1351.572
 866  1332.773
 867  1341.122
 868  1346.775
 869  1293.786
 870  1310.575
 871  1382.739
 872  1520.305
 873  1520.484
 874  1436.102
 875  1393.71
 876  1322.187
 877  1338.786
 878  1333.403
 879  1305.818
 880  1374.743
 881  1473.732
 882  1517.651
 883  1410.38
 884  1311.735
 885  1251.373
 886  1398.953
 887  1486.934
 888  1563.449
 889  1459.069
 890  1426.016
 891  1370.473
 892  1397.575
 893  1423.2
 894  1390.566
 895  1327.341
 896  1225.368
 897  1252.03
 898  1347.613
 899  1357.741
 900  1321.936
 901  1391.969
 902  1385.606
 903  1316.041
 904  1151.776
 905  1228.202
 906  1271.657
 907  1459.474
 908  1395.719
 909  1426.024
 910  1334.492
 911  1383.695
 912  1276.568
 913  1227.401
 914  1179.956
 915  1150.668
 916  1158.404
 917  1101.719
 918  1058.33
 919  1189.71
 920  1246.106
 921  1238.306
 922  1164.165
 923  1146.559
 924  1130.768
 925  1078.227
 926  1148.23
 927  1179.759
 928  1174.235
 929  978.6371
 930  1003.067
 931  1122.806
 932  1216.912
 933  1233.609
 934  1110.359
 935  1134.25
 936  1088.375
 937  1240.127
 938  1309.427
 939  1378.758
 940  1279.957
 941  1337.526
 942  1337.136
 943  1330.037
 944  1229.57
 945  1116.589
 946  1162.857
 947  1257.717
 948  1256.753
 949  1281.698
 950  1226.184
 951  1286.328
 952  1187.334
 953  1191.091
 954  1290.788
 955  1440.343
 956  1515.011
 957  1530.861
 958  1607.134
 959  1588.373
 960  1433.384
 961  1407.258
 962  1303.064
 963  1280.884
 964  1156.772
 965  1197.481
 966  1182.206
 967  1222.763
 968  1234.164
 969  1336.411
 970  1346.575
 971  1425.259
 972  1359.905
 973  1293.304
 974  1326.479
 975  1345.056
 976  1278.645
 977  1173.583
 978  1142.251
 979  1201.287
 980  1228.132
 981  1182.029
 982  1112.31
 983  1080.364
 984  1211.079
 985  1200.525
 986  1284.359
 987  1246.436
 988  1230.604
 989  1164.459
 990  1183.484
 991  1341.682
 992  1466.365
 993  1389.732
 994  1378.054
 995  1387.632
 996  1403.096
 997  1313.538
 998  1276.736
 999  1404.013
1000  1430.504
1001  1561.81
1002  1539.154
1003  1495.933
1004  1351.786
1005  1335.082
1006  1338.518
1007  1340.005
1008  1290.76
1009  1319.914
1010  1358.634
1011  1434.25
1012  1436.532
1013  1322.035
1014  1146.21
1015  1002.761
1016  1065.31
1017  1119.79
1018  1086.772
1019  1101.621
1020  1170.947
1021  1204.672
1022  1149.914
1023  1170.942
