# Input file       =  1210135029.122591_cleaned.dat
# Candidate        =  PSR_0332+5434
# Telescope        =  AR
# Epoch_topo       =  58250.192686604059
# Epoch_bary       =  N/A
# T_sample         =  0.002
# Data Folded      =  7208960
# Data Avg         =  0.431613044539171
# Data StdDev      =  8.19373471469733 
# Profile Bins     =  512
# Profile Avg      =  6077.12508009937 
# Profile StdDev   =  972.261807916825 
# Reduced chi-sqr  =  0.944
# Prob(Noise)      <  0.816   (~0.0 sigma)
# P_topo (ms)      =  714.536297480214  +/- 2.53e-05
# P'_topo (s/s)    =  -0                +/- 1.36e-11
# P''_topo (s/s^2) =  0                 +/- 6.11e-15
# P_bary (ms)      =  N/A
# P'_bary (s/s)    =  N/A
# P''_bary (s/s^2) =  N/A
# P_orb (s)        =  N/A
# asin(i)/c (s)    =  N/A
# eccentricity     =  N/A
# w (rad)          =  N/A
# T_peri           =  N/A
######################################################
   0  5592.065
   1  6424.839
   2  6933.514
   3  7530.87
   4  7454.497
   5  8023.656
   6  7645.363
   7  7641.282
   8  7895.267
   9  6949.528
  10  7322.791
  11  7020.989
  12  6602.199
  13  6284.783
  14  5800.057
  15  5213.318
  16  4597.541
  17  5692.882
  18  6083.697
  19  7190.932
  20  7348.698
  21  6617.973
  22  5358.667
  23  4850.141
  24  5027.036
  25  5490.162
  26  6880.483
  27  6822.327
  28  7273.414
  29  6924.72
  30  5897.357
  31  5041.839
  32  5185.661
  33  5752.776
  34  5801.679
  35  6893.427
  36  6491.627
  37  7046.644
  38  6494.679
  39  5743.748
  40  6088.555
  41  5429.484
  42  5758.036
  43  5946.475
  44  6561.333
  45  6893.302
  46  6577.331
  47  6222.755
  48  5522.347
  49  5446.736
  50  5191.62
  51  6163.281
  52  6800.494
  53  7210.973
  54  6583.557
  55  5975.237
  56  5570.046
  57  5157.741
  58  6134.834
  59  7406.456
  60  7352.686
  61  6786.255
  62  6593.083
  63  6421.951
  64  5686.521
  65  5192.344
  66  5266.133
  67  6364.768
  68  6648.984
  69  6683.473
  70  6837.903
  71  6133.535
  72  5613.274
  73  5709.324
  74  4985.913
  75  5765.335
  76  6718.671
  77  7225.379
  78  6845.835
  79  6420.008
  80  5631.5
  81  5117.138
  82  5507.669
  83  6191.662
  84  6514.01
  85  6883.782
  86  6663.204
  87  6159.971
  88  5621.335
  89  5002.845
  90  5436.725
  91  6145.185
  92  6440.765
  93  7072.661
  94  7171.35
  95  6163.147
  96  5595.894
  97  5530.834
  98  5508.127
  99  5313.056
 100  5873.416
 101  6111.602
 102  7167.809
 103  6917.667
 104  6313.004
 105  5492.474
 106  4943.132
 107  5441.719
 108  5876.424
 109  6781.036
 110  7029.848
 111  7206.517
 112  6848.927
 113  5777.385
 114  5494.364
 115  5056.638
 116  5337.144
 117  5527.469
 118  6344.691
 119  6765.305
 120  6555.945
 121  6365.674
 122  5777.322
 123  5982.878
 124  5348.352
 125  6283.15
 126  7135.726
 127  7246.888
 128  6708.299
 129  5924.737
 130  5630.939
 131  5758.591
 132  5497.648
 133  5786.693
 134  6173.458
 135  6716.537
 136  6848.677
 137  6001.883
 138  5791.151
 139  5261.555
 140  5439.988
 141  6270.397
 142  6861.927
 143  6811.625
 144  6828.624
 145  6037.199
 146  5523.173
 147  5487.757
 148  5145.775
 149  5262.264
 150  6146.158
 151  6622.26
 152  6726.352
 153  6391.615
 154  5694.96
 155  5668.874
 156  5856.297
 157  5413.749
 158  6848.741
 159  6608.429
 160  6178.741
 161  6619.761
 162  6424.748
 163  5359.751
 164  5200.689
 165  5499.558
 166  5764.689
 167  6417.966
 168  6767.24
 169  6363.876
 170  5728.476
 171  5051.656
 172  5028.296
 173  5432.612
 174  6296.989
 175  7085.714
 176  7928.323
 177  6866.775
 178  5872.802
 179  5683.18
 180  5053.903
 181  5185.812
 182  5395.955
 183  6137.245
 184  6799.273
 185  7425.54
 186  6838.716
 187  5781.803
 188  4913.404
 189  4716.38
 190  5526.363
 191  5959.021
 192  6665.699
 193  6714.361
 194  6751.841
 195  6822.624
 196  5826.044
 197  5192.208
 198  5022.161
 199  5195.988
 200  5533.766
 201  6460.809
 202  6623.417
 203  6394.065
 204  5751.642
 205  5089.043
 206  5256.509
 207  5328.371
 208  6358.989
 209  6639.231
 210  6548.106
 211  6154.236
 212  6046.02
 213  5559.107
 214  4780.288
 215  5313.899
 216  5769.888
 217  6533.831
 218  6850.283
 219  6680.258
 220  6357.587
 221  6063.679
 222  5913.08
 223  6071.584
 224  6344.146
 225  6192.704
 226  6262.879
 227  6524.014
 228  5871.489
 229  5632.223
 230  5279.816
 231  5660.118
 232  5872.476
 233  5608.261
 234  6028.572
 235  6437.837
 236  6354.116
 237  5329.676
 238  5512.35
 239  5767.062
 240  5921.7
 241  6514.859
 242  6381.179
 243  6091.047
 244  6019.888
 245  5777.169
 246  5764.135
 247  5791.334
 248  5851.737
 249  6352.316
 250  6789.356
 251  6170.75
 252  6069.396
 253  5818.133
 254  5416.395
 255  5957.609
 256  6156.945
 257  7064.103
 258  6807.197
 259  7424.03
 260  6867.821
 261  5663.677
 262  5521.179
 263  5228.589
 264  5388.729
 265  6435.983
 266  7024.331
 267  7616.29
 268  7207.026
 269  6691.098
 270  5886.336
 271  5525.846
 272  4997.305
 273  5828.078
 274  6269.268
 275  6975.844
 276  6903.7
 277  6709.84
 278  5740.652
 279  5572.939
 280  4910.771
 281  5129.2
 282  6231.946
 283  6860.617
 284  7190.254
 285  6666.459
 286  6111.309
 287  5478.882
 288  5320.523
 289  5812.507
 290  5843.646
 291  6690.892
 292  7097.591
 293  6713.592
 294  6483.968
 295  5454.697
 296  4682.193
 297  5223.316
 298  5874.687
 299  6076.963
 300  6892.793
 301  7396.707
 302  6463.492
 303  6037.967
 304  5645.77
 305  5708.146
 306  5351.582
 307  5988.438
 308  6582.088
 309  6967.58
 310  6713.344
 311  5575.717
 312  5472.493
 313  5588.351
 314  5702.317
 315  5469.662
 316  5990.748
 317  5859.911
 318  5872.592
 319  5900.467
 320  5666.715
 321  5588.481
 322  5586.018
 323  5844.217
 324  6207.515
 325  6472.511
 326  5942.62
 327  5888.399
 328  5675.664
 329  5073.449
 330  5220.927
 331  5787.371
 332  6132.521
 333  6700.371
 334  6425.206
 335  5611.48
 336  5456.527
 337  5497.696
 338  5725.567
 339  6079.569
 340  7044.059
 341  6933.812
 342  6570.972
 343  6136.419
 344  5097.556
 345  4718.038
 346  4802.691
 347  5262.019
 348  6168.057
 349  6866.833
 350  6556.945
 351  6294.966
 352  5605.382
 353  4527.452
 354  4805.618
 355  5234.275
 356  6258.68
 357  6356.618
 358  6781.634
 359  7012.39
 360  5707.552
 361  4999.343
 362  4869.582
 363  5000.825
 364  5171.833
 365  6290.562
 366  6479.333
 367  6607.998
 368  6645.895
 369  6209.654
 370  5569.255
 371  4921.387
 372  5883.28
 373  6457.939
 374  6603.257
 375  7205.438
 376  6801.208
 377  6452.869
 378  5156.389
 379  5028.491
 380  5447.552
 381  6248.102
 382  6328.037
 383  7159.666
 384  7030.061
 385  6168.712
 386  5667.245
 387  5328.288
 388  5582.228
 389  5766.469
 390  6564.314
 391  6509.109
 392  6924.258
 393  6260.508
 394  6100.542
 395  5449.471
 396  5030.034
 397  5396.792
 398  5670.313
 399  6348.931
 400  6775.804
 401  6697.195
 402  6464.787
 403  5400.615
 404  5737.801
 405  5840.446
 406  6306.714
 407  6367.799
 408  5992.491
 409  5974.636
 410  5340.336
 411  4863.722
 412  4963.487
 413  5594.94
 414  5580.22
 415  6605.84
 416  6815.691
 417  6262.458
 418  5789.766
 419  5402.874
 420  5611.643
 421  5704.296
 422  5824.846
 423  7248.247
 424  6948.824
 425  6400.84
 426  6136.807
 427  5356.313
 428  5121.669
 429  5719.972
 430  6196.453
 431  6788.406
 432  6887.575
 433  5871.789
 434  5658.451
 435  5010.777
 436  4889.633
 437  5652.716
 438  5457.277
 439  6630.446
 440  6927.278
 441  6803.798
 442  6278.937
 443  5839.28
 444  5211.819
 445  4743.266
 446  5430.299
 447  5620.717
 448  6406.744
 449  6935.352
 450  6741.983
 451  5529.019
 452  4559.24
 453  4557.245
 454  5188.067
 455  6410.201
 456  6913.374
 457  7401.191
 458  6937.812
 459  6479.949
 460  5593.955
 461  5355.815
 462  5381.06
 463  5856.038
 464  6149.767
 465  6203.475
 466  7330.458
 467  6785.646
 468  5936.436
 469  5301.288
 470  5280
 471  5952.982
 472  6135
 473  6627.167
 474  6950.559
 475  6737.561
 476  6395.527
 477  5703.139
 478  5549.077
 479  5171.359
 480  5926.557
 481  6187.521
 482  6782.061
 483  6771.23
 484  6229.083
 485  6165.391
 486  5848.605
 487  5894.762
 488  6256.14
 489  6485.214
 490  6813.096
 491  6810.069
 492  6150.116
 493  5830.518
 494  4946.037
 495  5050.632
 496  6051.638
 497  6410.914
 498  6788.639
 499  6829.788
 500  6632.918
 501  6183.07
 502  5577.267
 503  5671.31
 504  6156.672
 505  6754.821
 506  7395.482
 507  7092.29
 508  6439.714
 509  6015.834
 510  5556.249
 511  5283.58
