# Input file       =  1210738238.106472_cleaned.dat
# Candidate        =  PSR_0332+5434
# Telescope        =  AR
# Epoch_topo       =  58257.174272065648
# Epoch_bary       =  N/A
# T_sample         =  0.002
# Data Folded      =  7143424
# Data Avg         =  0.157800069805063
# Data StdDev      =  5.11171682940181 
# Profile Bins     =  512
# Profile Avg      =  2201.73654854726 
# Profile StdDev   =  603.788756161079 
# Reduced chi-sqr  =  1.971
# Prob(Noise)      <  9.59e-35   (~12.2 sigma)
# P_topo (ms)      =  714.529491419004  +/- 1.98e-05
# P'_topo (s/s)    =  -0                +/- 1.07e-11
# P''_topo (s/s^2) =  0                 +/- 4.86e-15
# P_bary (ms)      =  N/A
# P'_bary (s/s)    =  N/A
# P''_bary (s/s^2) =  N/A
# P_orb (s)        =  N/A
# asin(i)/c (s)    =  N/A
# eccentricity     =  N/A
# w (rad)          =  N/A
# T_peri           =  N/A
######################################################
   0  1069.018
   1  1313.991
   2  1887.623
   3  2386.272
   4  2660.984
   5  2563.89
   6  2356.428
   7  1834.007
   8  1650.65
   9  1492.234
  10  2393.832
  11  2661.78
  12  2522.016
  13  2273.783
  14  1923.72
  15  1726.545
  16  1581.837
  17  1748.422
  18  2426.157
  19  3285.364
  20  2798.318
  21  2970.335
  22  2710.378
  23  1901.448
  24  1695.743
  25  1379.512
  26  1706.589
  27  2119.835
  28  2543.371
  29  2821.791
  30  2811.351
  31  2339.472
  32  1247.336
  33  1205.988
  34  1378.271
  35  1921.616
  36  3188.376
  37  3917.963
  38  3456.263
  39  2530.127
  40  2226.613
  41  1634.492
  42  1529.806
  43  1683.227
  44  2069.989
  45  2704.714
  46  2930.172
  47  2790.89
  48  2126.338
  49  2009.593
  50  1406.019
  51  1368.247
  52  2127.473
  53  2945.872
  54  3333.72
  55  3265.588
  56  2823.885
  57  2012.809
  58  1827.98
  59  1373.742
  60  1689.075
  61  2570.588
  62  2865.61
  63  2886.666
  64  2197.219
  65  2407.955
  66  1561.773
  67  1608.565
  68  2047.161
  69  2331.36
  70  2828.924
  71  2803.936
  72  2968.604
  73  2725.536
  74  2361.05
  75  2292.146
  76  2039.039
  77  2069.284
  78  2442.629
  79  2283.46
  80  2033.938
  81  2251.295
  82  1752.285
  83  1558.567
  84  2026.997
  85  2544.745
  86  2705.341
  87  2474.916
  88  2371.848
  89  2062.156
  90  1537.026
  91  1516.658
  92  1315.97
  93  1955.772
  94  1886.736
  95  2162.338
  96  2306.879
  97  2225.853
  98  1815.886
  99  1595.619
 100  1862.115
 101  2024.784
 102  2541.165
 103  2931.631
 104  2975.961
 105  2326.282
 106  1633.041
 107  1356.852
 108  1226.255
 109  1564.39
 110  2378.758
 111  2728.136
 112  2780.28
 113  2420.403
 114  2001.265
 115  1165.74
 116  1335.833
 117  1584.006
 118  2175.899
 119  3006.682
 120  3477.266
 121  3298.855
 122  2554.406
 123  1972.872
 124  1089.65
 125  1267.484
 126  1616.53
 127  1992.09
 128  2400.333
 129  3217.057
 130  2742.141
 131  1574.004
 132  1445.793
 133  1055.667
 134  1746.866
 135  2371.823
 136  2800.194
 137  3138.213
 138  2988.601
 139  2324.597
 140  1839.104
 141  1960.395
 142  1884.483
 143  1800.248
 144  2037.479
 145  2650.245
 146  2987.494
 147  2653.779
 148  2206.089
 149  1983.298
 150  1922.106
 151  1934.214
 152  2026.84
 153  2756.227
 154  3080.839
 155  2840.656
 156  2377.125
 157  1943.934
 158  1291.478
 159  1751.77
 160  2303.787
 161  2278.375
 162  2521.869
 163  2479.883
 164  2118.368
 165  1777.073
 166  1760.649
 167  2717.296
 168  2793.246
 169  2768.97
 170  2956.181
 171  2796.688
 172  2591.574
 173  1943.667
 174  1868.056
 175  1704.799
 176  2299.278
 177  2241.627
 178  2483.68
 179  2629.178
 180  1943.358
 181  1590.405
 182  1650.635
 183  2247.206
 184  2768.084
 185  3038.678
 186  3056.083
 187  2887.781
 188  2208.137
 189  1652.954
 190  1834.049
 191  1725.757
 192  2213.145
 193  2376.449
 194  2538.351
 195  2300.596
 196  2360.415
 197  1661.312
 198  1181.205
 199  1801.177
 200  2155.057
 201  2739.86
 202  3023.58
 203  3195.594
 204  2622.885
 205  1879.893
 206  1926.514
 207  1599.303
 208  1833.616
 209  2083.866
 210  2317.708
 211  2404.076
 212  2301.825
 213  2141.92
 214  1413.852
 215  1475.007
 216  1295.363
 217  2004.36
 218  2628.31
 219  3170.125
 220  2837.911
 221  1812.239
 222  1410.072
 223  1046.091
 224  1406.408
 225  1444.348
 226  1981.439
 227  2778.072
 228  2478.32
 229  2214.863
 230  2050.481
 231  1890.918
 232  1354.649
 233  1616.06
 234  2081.934
 235  2817.848
 236  3094.632
 237  3081.415
 238  2796.658
 239  2060.435
 240  1731.589
 241  1913.773
 242  1834.865
 243  2186.668
 244  2245.052
 245  2509.527
 246  2295.744
 247  1977.028
 248  1538.641
 249  1830.146
 250  2461.078
 251  2516.043
 252  2767.7
 253  2575.384
 254  2160.652
 255  2076.053
 256  1901.575
 257  1982.728
 258  2217.104
 259  2111.167
 260  2035.577
 261  1971.586
 262  2050.33
 263  1897.38
 264  1145.175
 265  1578.503
 266  2359.006
 267  2437.658
 268  2802.368
 269  2829.526
 270  2407.972
 271  1862.344
 272  1343.434
 273  1689.456
 274  1892.298
 275  2824.68
 276  2705.528
 277  2478.723
 278  2637.057
 279  1804.064
 280  1298.333
 281  1356.178
 282  2188.064
 283  2535.102
 284  3106.571
 285  3296.533
 286  3242.543
 287  2542.027
 288  1553.245
 289  1567.078
 290  1589.366
 291  2052.361
 292  2302.606
 293  2744.654
 294  3061.867
 295  2577.941
 296  2385.099
 297  2247.828
 298  3031.435
 299  3917.925
 300  4798.239
 301  5152.608
 302  4716.691
 303  3719.757
 304  2569.382
 305  2505.096
 306  1464.28
 307  1557.972
 308  1934.721
 309  2277.264
 310  3036.166
 311  3008.649
 312  2887.37
 313  2119.21
 314  1908.296
 315  1850.323
 316  1898.49
 317  2394.959
 318  2782.746
 319  3291.158
 320  2768.889
 321  2683.258
 322  2149.174
 323  2071.68
 324  2240.593
 325  2170.312
 326  2308.687
 327  2208.928
 328  2544.362
 329  2223.542
 330  2027.193
 331  2248.262
 332  2323.863
 333  2632.304
 334  3051.975
 335  3335.119
 336  2969.574
 337  2627.066
 338  1994.285
 339  1984.607
 340  2420.427
 341  2283.357
 342  2785.43
 343  2796.028
 344  2524.083
 345  1991.094
 346  1424.782
 347  1388.571
 348  2075.828
 349  2695.1
 350  2701.751
 351  3381.307
 352  3160.542
 353  2509.184
 354  1973.154
 355  1650.406
 356  1976.904
 357  2568.577
 358  3127
 359  3001.861
 360  2561.457
 361  2255.381
 362  1769.718
 363  1485.319
 364  1296.885
 365  1989.668
 366  2366.51
 367  3078.276
 368  3327.327
 369  2770.46
 370  2258.923
 371  1558.121
 372  1307.344
 373  1661.545
 374  2134.228
 375  2359.36
 376  2756.47
 377  2831.561
 378  2174.369
 379  1114.747
 380  825.6314
 381  1435.462
 382  1874.753
 383  2744.016
 384  3280.082
 385  3054.394
 386  2483.496
 387  1950.247
 388  2004.229
 389  1426.989
 390  1120.84
 391  1873.358
 392  2342.405
 393  2765.867
 394  2609.246
 395  2019.102
 396  1210.281
 397  786.3659
 398  1070.827
 399  1578.078
 400  2773.31
 401  3062.519
 402  2870.364
 403  2399.612
 404  1837.748
 405  1625.823
 406  1533.588
 407  1571.743
 408  2040.305
 409  2211.13
 410  2275.059
 411  2032.932
 412  1811.655
 413  1437.662
 414  1425.81
 415  1722.802
 416  2312.714
 417  2488.405
 418  2354.465
 419  2180.236
 420  1866.854
 421  1748.309
 422  1486.844
 423  1955.68
 424  1924.653
 425  2329.392
 426  2213.694
 427  1799.844
 428  1606.082
 429  1723.179
 430  1719.201
 431  2047.587
 432  2770.434
 433  3013.437
 434  2817.825
 435  2439.504
 436  2150.871
 437  1440.884
 438  1430.396
 439  1836.917
 440  2086.948
 441  2352.369
 442  2685.448
 443  2460.95
 444  1926.093
 445  1525.36
 446  1478.283
 447  2070.983
 448  2177.719
 449  2264.673
 450  3172.431
 451  3042.836
 452  2359.745
 453  2006.582
 454  1535.337
 455  1490.008
 456  1639.901
 457  2080.824
 458  2516.586
 459  2834.527
 460  2227.803
 461  1437.145
 462  1036.635
 463  815.7347
 464  1417.286
 465  2272.116
 466  3172.796
 467  3695.009
 468  3315.835
 469  2378.692
 470  1026.654
 471  920.4139
 472  1245.766
 473  1608.435
 474  2104.357
 475  2662.943
 476  2891.18
 477  2342.148
 478  1530.894
 479  1113.696
 480  1375.408
 481  1599.319
 482  2626.452
 483  3241.828
 484  3130.193
 485  2699.062
 486  2177.001
 487  1966.115
 488  1335.044
 489  1305.84
 490  2149.567
 491  2564.211
 492  2891.89
 493  2439.352
 494  2050.379
 495  1645.216
 496  1403.209
 497  1363.514
 498  1936.237
 499  2134.055
 500  2436.823
 501  2989.755
 502  2366.523
 503  1875.502
 504  1805.946
 505  1711.197
 506  2084.068
 507  1905.007
 508  1777.648
 509  1960.319
 510  1891.306
 511  1436.334
