# Input file       =  1210164609.112019_cleaned.dat
# Candidate        =  PSR_0332+5434
# Telescope        =  AR
# Epoch_topo       =  58250.535047592813
# Epoch_bary       =  N/A
# T_sample         =  0.002
# Data Folded      =  7340032
# Data Avg         =  0.10226569007604 
# Data StdDev      =  3.37438018090946 
# Profile Bins     =  512
# Profile Avg      =  1465.97380590563 
# Profile StdDev   =  404.024784949871 
# Reduced chi-sqr  =  1.431
# Prob(Noise)      <  4.97e-10   (~6.1 sigma)
# P_topo (ms)      =  714.53631554026   +/- 0.00041
# P'_topo (s/s)    =  -0                +/- 2.16e-10
# P''_topo (s/s^2) =  0                 +/- 9.55e-14
# P_bary (ms)      =  N/A
# P'_bary (s/s)    =  N/A
# P''_bary (s/s^2) =  N/A
# P_orb (s)        =  N/A
# asin(i)/c (s)    =  N/A
# eccentricity     =  N/A
# w (rad)          =  N/A
# T_peri           =  N/A
######################################################
   0  1418.887
   1  1536.468
   2  1702.156
   3  1458.146
   4  1080.794
   5  1053.869
   6  1014.761
   7  904.1656
   8  1557.684
   9  1844.482
  10  1711.427
  11  1413.82
  12  1416.051
  13  1095.761
  14  1038.173
  15  1320.109
  16  1573.273
  17  1479.808
  18  1441.658
  19  1138.673
  20  1293.693
  21  1146.989
  22  1125.275
  23  1178.932
  24  1329.128
  25  1435.919
  26  1121.765
  27  1011.823
  28  1002.726
  29  1118.956
  30  1361.385
  31  1277.633
  32  1363.735
  33  1313.779
  34  992.4269
  35  1019.881
  36  931.8339
  37  768.2996
  38  1026.104
  39  1402.132
  40  1451.403
  41  1475.659
  42  1736.149
  43  1405.227
  44  1369.922
  45  1399.056
  46  1457.758
  47  1237.181
  48  1561.51
  49  1337.21
  50  1532.479
  51  1340.315
  52  1183.258
  53  1129.688
  54  1099.32
  55  1151.841
  56  1415.182
  57  1004.484
  58  1125.605
  59  1233.329
  60  1197.018
  61  1498.535
  62  1587.865
  63  1359.412
  64  946.2121
  65  792.1429
  66  932.6405
  67  1006.538
  68  1121.724
  69  1375.042
  70  1489.568
  71  1704.57
  72  1592.369
  73  1232.036
  74  1155.867
  75  1077.345
  76  1494.521
  77  1390.789
  78  1527.035
  79  1457.021
  80  1371.05
  81  1359.413
  82  1329.973
  83  1321.128
  84  1264.668
  85  1557.971
  86  1519.246
  87  1215.415
  88  1288.913
  89  1436.381
  90  1515.85
  91  1491.406
  92  1607.247
  93  1520.125
  94  1362.269
  95  1518.208
  96  1486.212
  97  1420.519
  98  1375.219
  99  1224.209
 100  1352.463
 101  1275.058
 102  1458.275
 103  1513.967
 104  1633.477
 105  1658.446
 106  1510.583
 107  1404.079
 108  1544.356
 109  1765.54
 110  1444.074
 111  1271.333
 112  1297.209
 113  1413.829
 114  1306.521
 115  1097.494
 116  1419.468
 117  1395.697
 118  1349.22
 119  1297.749
 120  981.637
 121  1239.895
 122  1344.525
 123  1069.002
 124  1121.363
 125  1610.969
 126  1527.966
 127  1457.96
 128  1525.971
 129  1483.031
 130  1304.097
 131  1441.358
 132  1550.958
 133  1710.311
 134  1846.329
 135  1948.305
 136  1655.853
 137  1251.527
 138  1337.036
 139  1812.263
 140  2238.362
 141  1956.016
 142  1703.198
 143  1393.899
 144  1301.553
 145  1324.72
 146  1679.959
 147  1041.97
 148  1122.792
 149  1218.807
 150  852.0982
 151  876.8151
 152  1077.467
 153  919.4453
 154  929.3912
 155  967.2718
 156  678.6252
 157  936.566
 158  955.2625
 159  1200.503
 160  949.3447
 161  796.7123
 162  1190.657
 163  1048.304
 164  1470.095
 165  1126.926
 166  972.685
 167  1253.067
 168  1165.547
 169  907.9011
 170  1132.924
 171  1428.428
 172  1514.067
 173  1452.656
 174  1347.829
 175  1434.149
 176  1185.962
 177  803.8767
 178  1316.657
 179  1305.481
 180  1300.185
 181  1012.697
 182  841.8694
 183  1198.515
 184  1440.87
 185  1457.47
 186  1450.161
 187  1359.464
 188  1441.698
 189  1257.011
 190  1276.046
 191  1345.802
 192  1374.945
 193  1574.066
 194  1566.807
 195  1388.89
 196  1457.61
 197  1391.306
 198  1428.021
 199  1656.471
 200  1664.367
 201  1533.435
 202  1533.498
 203  1292.774
 204  1270.611
 205  1261.519
 206  1332.406
 207  1597.983
 208  1707.699
 209  1615.595
 210  1696.474
 211  1671.195
 212  2008.182
 213  1758.691
 214  1413.774
 215  1511.661
 216  1338.895
 217  1525.011
 218  1642.744
 219  1710.206
 220  1877.851
 221  1731.038
 222  1787.744
 223  1419.697
 224  1497.655
 225  1527.751
 226  1636.213
 227  1714.388
 228  1619.537
 229  1905.321
 230  1605.252
 231  1367.953
 232  1441.419
 233  1469.014
 234  1626.102
 235  1995.533
 236  2013.753
 237  1757.274
 238  1399.732
 239  1253.602
 240  1404.97
 241  1318.93
 242  1282.027
 243  1491.897
 244  1797.729
 245  1766.917
 246  1674.825
 247  1800.385
 248  1838.448
 249  1349.271
 250  1551.976
 251  1752.243
 252  1526.28
 253  1400.407
 254  1723.863
 255  1756.106
 256  1524.932
 257  1547.658
 258  1382.842
 259  1411.058
 260  1611.271
 261  1913.49
 262  2055.514
 263  1854.249
 264  1615.12
 265  1655.918
 266  1453.597
 267  1582.126
 268  1754.368
 269  1709.017
 270  1784.234
 271  1696.237
 272  1609.5
 273  1482.156
 274  1191.675
 275  1426.065
 276  1477.477
 277  1561.181
 278  1521.061
 279  1827.83
 280  1883.78
 281  1761.223
 282  1509.973
 283  1443.437
 284  1497.071
 285  1246.086
 286  1219.089
 287  1267.679
 288  1219.958
 289  1470.327
 290  1397.541
 291  1402.75
 292  1209.795
 293  1263.147
 294  1357.102
 295  2035.376
 296  2473.221
 297  2567.212
 298  3246.975
 299  3757.213
 300  3467.159
 301  3508.538
 302  3189.308
 303  2382.497
 304  2074.972
 305  1739.181
 306  1450.275
 307  1258.068
 308  1527.588
 309  1460.969
 310  1150.881
 311  1273.125
 312  1562.63
 313  1513.381
 314  1358.033
 315  1217.855
 316  1243.375
 317  1179.993
 318  1191.576
 319  1468.726
 320  1352.647
 321  1352.771
 322  1276.495
 323  991.1711
 324  987.9166
 325  1185.856
 326  1182.994
 327  838.7245
 328  1274.804
 329  1266.177
 330  1082.685
 331  1094.519
 332  986.7284
 333  1284.872
 334  1434.846
 335  1385.045
 336  1340.302
 337  1543.108
 338  1557.167
 339  1257.825
 340  1305.429
 341  1323.146
 342  1155.339
 343  1442.291
 344  1833.216
 345  1488.153
 346  1337.826
 347  1275.035
 348  1233.334
 349  1427.536
 350  1469.448
 351  1516.63
 352  1395.935
 353  1423.247
 354  1683.289
 355  1762.091
 356  1577.02
 357  1280.014
 358  949.5771
 359  1056.879
 360  1486.97
 361  1090.772
 362  1073.887
 363  1418.457
 364  1264.603
 365  1035.077
 366  886.9949
 367  1081.619
 368  1665.271
 369  1731.581
 370  1209.658
 371  1398.75
 372  1519.54
 373  1754.837
 374  1627.386
 375  1480.629
 376  1755.361
 377  1804.356
 378  1877.214
 379  1819.436
 380  1767.391
 381  1768.239
 382  1750.639
 383  1799.207
 384  1812.25
 385  1753.471
 386  1778.758
 387  1740.919
 388  1695.609
 389  1652.679
 390  1869.249
 391  1915.376
 392  1668.095
 393  1971.334
 394  1972.28
 395  2070.505
 396  2161.042
 397  1929.017
 398  1655.411
 399  1589.535
 400  1551.328
 401  1909.78
 402  1882.545
 403  1953.661
 404  2070.066
 405  1909.112
 406  1950.606
 407  1868.076
 408  2015.89
 409  2165.902
 410  1789.982
 411  1879.397
 412  1983.538
 413  1921.222
 414  1970.158
 415  1675.37
 416  1849.204
 417  1642.611
 418  1589.07
 419  2015.493
 420  2144.859
 421  1969.452
 422  1708.073
 423  1527.946
 424  1625.104
 425  1487.942
 426  1588.504
 427  1865.667
 428  1545.885
 429  1262.35
 430  1423.972
 431  1326.188
 432  1463.805
 433  1537.581
 434  1442.215
 435  1407.291
 436  1320.691
 437  1095.194
 438  1237.239
 439  1036.46
 440  1499.467
 441  1345.31
 442  1099.102
 443  1281.445
 444  1355.149
 445  1452.146
 446  1287.939
 447  1014.858
 448  1372.33
 449  1300.029
 450  1262.649
 451  1086.992
 452  1240.082
 453  1557.725
 454  1247.763
 455  1275.227
 456  996.5448
 457  1020.79
 458  1067.997
 459  1209.053
 460  1113.26
 461  1094.51
 462  1296.613
 463  1550.015
 464  1216.495
 465  1298.533
 466  979.3738
 467  935.5132
 468  1072.712
 469  1430.127
 470  1749.65
 471  1592.229
 472  1691.884
 473  2081.66
 474  1984.843
 475  1327.033
 476  1276.701
 477  1448.645
 478  1633.491
 479  1845.129
 480  1886.861
 481  1633.897
 482  1885.618
 483  2075.243
 484  1745.752
 485  1512.336
 486  1347.26
 487  1439.053
 488  1568.332
 489  1498.426
 490  1583.491
 491  1265.595
 492  1164.128
 493  1610.429
 494  1572.556
 495  1264.206
 496  1477.855
 497  1460.286
 498  1370.487
 499  1319.229
 500  1574.093
 501  1574.108
 502  1425.064
 503  1574.926
 504  1612.384
 505  1349.11
 506  1491.807
 507  1394.062
 508  1653.102
 509  1919.723
 510  1362.441
 511  1365.386
