# Input file       =  1210423124.123347_cleaned.dat
# Candidate        =  PSR_0332+5434
# Telescope        =  AR
# Epoch_topo       =  58253.527119483180
# Epoch_bary       =  N/A
# T_sample         =  0.002
# Data Folded      =  7340032
# Data Avg         =  0.0388368641033018
# Data StdDev      =  1.00006183493652 
# Profile Bins     =  512
# Profile Avg      =  556.968423140284 
# Profile StdDev   =  119.740440061469 
# Reduced chi-sqr  =  1.324
# Prob(Noise)      <  1.16e-06   (~4.7 sigma)
# P_topo (ms)      =  714.533413590165  +/- 0.000267
# P'_topo (s/s)    =  -0                +/- 1.41e-10
# P''_topo (s/s^2) =  0                 +/- 6.22e-14
# P_bary (ms)      =  N/A
# P'_bary (s/s)    =  N/A
# P''_bary (s/s^2) =  N/A
# P_orb (s)        =  N/A
# asin(i)/c (s)    =  N/A
# eccentricity     =  N/A
# w (rad)          =  N/A
# T_peri           =  N/A
######################################################
   0  593.555
   1  628.9822
   2  640.3021
   3  650.7212
   4  693.5034
   5  645.3414
   6  564.4319
   7  539.7618
   8  516.3097
   9  581.3247
  10  572.0732
  11  584.0913
  12  585.2462
  13  621.8396
  14  481.1734
  15  434.1569
  16  394.4337
  17  533.2423
  18  592.8647
  19  590.4562
  20  574.1859
  21  525.2352
  22  525.8678
  23  526.7321
  24  494.3368
  25  498.2999
  26  454.3406
  27  452.0578
  28  363.4188
  29  473.1367
  30  617.0641
  31  536.4647
  32  492.0133
  33  573.8062
  34  539.5703
  35  577.4
  36  672.1451
  37  630.7941
  38  611.0506
  39  658.4643
  40  682.2304
  41  515.2486
  42  445.2237
  43  621.2023
  44  656.9265
  45  650.107
  46  633.4675
  47  599.7422
  48  546.651
  49  571.6081
  50  596.8853
  51  623.194
  52  757.7274
  53  729.8335
  54  689.1784
  55  613.4894
  56  529.6617
  57  466.7714
  58  541.1613
  59  574.2387
  60  525.7144
  61  428.6594
  62  521.5978
  63  542.475
  64  604.411
  65  583.9656
  66  606.4918
  67  637.0904
  68  543.581
  69  579.8735
  70  640.5065
  71  542.1436
  72  511.6789
  73  515.7523
  74  515.8522
  75  533.8035
  76  620.2692
  77  625.29
  78  675.1601
  79  621.2158
  80  505.7633
  81  463.7785
  82  520.6553
  83  501.3181
  84  481.8419
  85  597.9199
  86  635.0038
  87  525.2194
  88  463.3838
  89  538.9098
  90  544.7104
  91  622.8875
  92  647.0226
  93  585.6794
  94  550.0369
  95  504.0876
  96  496.44
  97  499.7953
  98  606.4068
  99  626.4018
 100  626.5562
 101  603.0195
 102  541.8742
 103  564.8776
 104  535.9258
 105  455.0556
 106  534.6982
 107  585.4239
 108  554.6021
 109  537.6004
 110  476.3067
 111  471.5041
 112  475.5782
 113  411.6791
 114  531.6213
 115  460.4396
 116  519.9725
 117  491.6374
 118  459.4816
 119  560.7399
 120  502.6967
 121  465.0633
 122  459.1922
 123  439.3142
 124  482.9536
 125  576.5659
 126  577.8672
 127  540.4704
 128  657.0932
 129  660.8352
 130  598.1508
 131  555.7606
 132  515.9678
 133  603.6695
 134  686.0624
 135  604.9758
 136  520.292
 137  545.5044
 138  603.6974
 139  556.7946
 140  533.2482
 141  552.8104
 142  500.078
 143  436.1537
 144  419.6108
 145  579.1856
 146  521.8022
 147  441.6993
 148  472.4068
 149  584.2242
 150  588.2546
 151  558.3728
 152  479.5948
 153  497.1258
 154  532.5825
 155  563.7056
 156  599.8148
 157  486.9219
 158  436.7286
 159  440.6179
 160  558.7963
 161  730.1638
 162  592.2869
 163  606.0182
 164  642.4438
 165  650.0341
 166  677.8267
 167  619.3631
 168  550.9317
 169  463.2503
 170  522.7861
 171  582.9061
 172  472.7314
 173  487.9137
 174  547.4767
 175  467.4879
 176  504.3164
 177  551.0602
 178  403.7908
 179  437.7259
 180  447.2143
 181  443.2861
 182  553.1241
 183  536.1204
 184  567.9456
 185  525.7009
 186  687.6949
 187  686.0349
 188  533.4745
 189  579.8552
 190  465.7958
 191  401.3486
 192  468.2152
 193  532.8742
 194  447.7935
 195  433.5547
 196  370.3234
 197  541.5297
 198  642.2333
 199  451.9268
 200  566.6268
 201  540.0717
 202  497.2865
 203  510.7622
 204  531.3142
 205  460.6271
 206  450.1811
 207  568.4015
 208  595.8344
 209  474.4206
 210  545.7428
 211  519.4105
 212  516.6627
 213  579.3312
 214  641.9257
 215  577.4955
 216  570.3929
 217  418.47
 218  495.1479
 219  516.4262
 220  472.5363
 221  497.3956
 222  586.0605
 223  613.615
 224  640.3519
 225  508.6006
 226  487.0665
 227  594.9109
 228  601.7054
 229  474.3846
 230  462.3337
 231  412.8255
 232  473.1386
 233  487.246
 234  561.4087
 235  559.4174
 236  599.1635
 237  450.9453
 238  591.5951
 239  521.6797
 240  501.2747
 241  537.6359
 242  595.9844
 243  519.4771
 244  435.7473
 245  478.5778
 246  599.4344
 247  475.5971
 248  469.6519
 249  457.9588
 250  389.6707
 251  451.7073
 252  595.659
 253  623.8997
 254  549.5713
 255  613.6254
 256  556.3491
 257  575.5713
 258  529.7375
 259  573.8135
 260  550.2882
 261  624.4366
 262  616.8784
 263  654.6042
 264  487.365
 265  351.076
 266  368.6943
 267  479.8969
 268  606.9943
 269  531.7856
 270  544.5524
 271  564.5436
 272  466.0477
 273  426.5845
 274  546.4402
 275  507.826
 276  491.1213
 277  505.4544
 278  546.4377
 279  510.3861
 280  586.4431
 281  569.2555
 282  516.5184
 283  559.0178
 284  580.599
 285  605.773
 286  587.4031
 287  522.9941
 288  547.7153
 289  570.4841
 290  626.2739
 291  566.4835
 292  577.0062
 293  551.1853
 294  587.6205
 295  581.6663
 296  582.5296
 297  568.4385
 298  539.816
 299  586.0583
 300  572.6779
 301  584.3838
 302  502.7125
 303  472.9773
 304  556.566
 305  689.3398
 306  597.1053
 307  529.7111
 308  596.9243
 309  717.6431
 310  633.0529
 311  588.6018
 312  684.0689
 313  575.3731
 314  565.3379
 315  606.5231
 316  604.7046
 317  590.0049
 318  572.2785
 319  539.5932
 320  470.7775
 321  435.4483
 322  455.4006
 323  500.8167
 324  472.3387
 325  447.603
 326  444.776
 327  403.83
 328  468.0791
 329  535.3631
 330  520.1788
 331  587.1385
 332  589.4993
 333  475.9562
 334  723.312
 335  650.2115
 336  499.9102
 337  546.4781
 338  634.3378
 339  530.218
 340  412.2606
 341  470.9626
 342  530.856
 343  541.2994
 344  532.1399
 345  646.4163
 346  685.0943
 347  623.6147
 348  607.5999
 349  542.5579
 350  650.4603
 351  700.0628
 352  639.3693
 353  622.382
 354  544.8631
 355  591.7741
 356  638.1934
 357  569.3785
 358  670.8282
 359  752.5129
 360  722.2749
 361  813.4136
 362  916.0207
 363  1168.691
 364  1239.645
 365  1280.623
 366  1338.377
 367  1104.458
 368  724.2986
 369  579.3841
 370  565.2259
 371  528.5125
 372  546.5907
 373  528.3484
 374  527.7023
 375  581.932
 376  519.4852
 377  469.7421
 378  537.213
 379  600.0368
 380  618.4868
 381  600.4835
 382  591.3686
 383  504.0645
 384  524.3312
 385  476.7342
 386  473.4792
 387  623.2778
 388  582.5247
 389  637.7601
 390  592.5479
 391  522.6899
 392  602.7115
 393  522.5844
 394  622.5773
 395  634.895
 396  614.8132
 397  676.5012
 398  576.6129
 399  502.1099
 400  471.0189
 401  468.0421
 402  461.6613
 403  555.8347
 404  612.3445
 405  595.6406
 406  570.79
 407  625.0176
 408  516.9915
 409  503.5029
 410  574.5818
 411  567.905
 412  516.4657
 413  432.6705
 414  472.373
 415  412.6438
 416  444.4562
 417  534.6727
 418  492.0994
 419  497.7084
 420  501.589
 421  567.7321
 422  622.7926
 423  624.6046
 424  601.5734
 425  698.015
 426  635.1567
 427  655.9401
 428  616.0888
 429  552.9693
 430  499.9109
 431  539.4388
 432  613.1525
 433  690.5925
 434  639.768
 435  605.6942
 436  606.5076
 437  676.6633
 438  602.1583
 439  529.2919
 440  509.9906
 441  487.7344
 442  463.4984
 443  524.5256
 444  411.5572
 445  479.4754
 446  548.7395
 447  529.3925
 448  492.2492
 449  577.6688
 450  546.1855
 451  491.513
 452  572.3867
 453  549.848
 454  516.9062
 455  641.4124
 456  601.8538
 457  540.071
 458  495.9156
 459  411.1091
 460  476.8205
 461  546.5699
 462  622.309
 463  515.6367
 464  436.634
 465  484.6226
 466  564.7099
 467  595.84
 468  498.5164
 469  364.6765
 470  558.8927
 471  513.8171
 472  491.709
 473  545.5884
 474  488.2293
 475  538.4101
 476  502.1482
 477  507.2182
 478  577.0071
 479  491.5454
 480  525.2932
 481  624.157
 482  532.6962
 483  461.5619
 484  567.8837
 485  505.1104
 486  560.4671
 487  563.8948
 488  549.9202
 489  561.7857
 490  456.2496
 491  519.6008
 492  531.0033
 493  562.6995
 494  549.524
 495  717.413
 496  650.6374
 497  568.6544
 498  670.5771
 499  679.2933
 500  591.7583
 501  493.5359
 502  456.32
 503  616.1605
 504  537.7189
 505  587.9332
 506  568.8553
 507  608.5842
 508  615.6018
 509  367.3488
 510  483.4839
 511  588.8029
