# Input file       =  1211786751.104601_cleaned.dat
# Candidate        =  PSR_0332+5434
# Telescope        =  AR
# Epoch_topo       =  58269.309839173620
# Epoch_bary       =  N/A
# T_sample         =  0.002
# Data Folded      =  7340032
# Data Avg         =  0.037955966147291
# Data StdDev      =  1.00008121974338 
# Profile Bins     =  512
# Profile Avg      =  544.086264791118 
# Profile StdDev   =  119.742761063255 
# Reduced chi-sqr  =  1.491
# Prob(Noise)      <  3.3e-12   (~6.9 sigma)
# P_topo (ms)      =  714.517613565954  +/- 0.000377
# P'_topo (s/s)    =  -0                +/- 1.99e-10
# P''_topo (s/s^2) =  0                 +/- 8.78e-14
# P_bary (ms)      =  N/A
# P'_bary (s/s)    =  N/A
# P''_bary (s/s^2) =  N/A
# P_orb (s)        =  N/A
# asin(i)/c (s)    =  N/A
# eccentricity     =  N/A
# w (rad)          =  N/A
# T_peri           =  N/A
######################################################
   0  1200.417
   1  1246.547
   2  1114.156
   3  810.2089
   4  686.3104
   5  629.8567
   6  675.1618
   7  667.2045
   8  651.329
   9  739.4386
  10  660.0571
  11  624.1003
  12  632.6379
  13  658.9287
  14  727.5005
  15  597.2233
  16  634.9743
  17  659.0176
  18  495.3764
  19  544.2057
  20  633.0114
  21  611.4302
  22  652.6404
  23  706.9913
  24  676.0789
  25  563.728
  26  488.8329
  27  517.569
  28  544.4882
  29  526.0233
  30  448.8451
  31  394.4051
  32  455.7409
  33  427.7751
  34  414.5399
  35  467.5687
  36  430.7599
  37  345.6469
  38  416.1844
  39  507.4861
  40  486.2221
  41  469.7343
  42  432.2965
  43  480.1476
  44  566.1501
  45  513.8455
  46  446.7969
  47  490.7881
  48  554.4327
  49  553.5298
  50  495.7039
  51  488.2864
  52  551.6042
  53  476.3474
  54  490.3509
  55  577.3752
  56  482.6622
  57  428.2804
  58  362.4371
  59  458.7673
  60  561.9122
  61  545.5999
  62  535.7986
  63  521.5269
  64  509.0743
  65  553.6148
  66  444.6641
  67  400.1169
  68  434.4838
  69  371.7452
  70  386.4435
  71  484.0301
  72  513.7426
  73  528.8177
  74  535.2269
  75  448.0659
  76  498.1129
  77  477.5323
  78  446.3436
  79  519.0072
  80  461.5336
  81  500.0836
  82  586.9634
  83  480.3394
  84  523.0614
  85  493.4324
  86  563.2767
  87  599.9075
  88  530.1575
  89  360.351
  90  406.3253
  91  570.9321
  92  561.1801
  93  473.987
  94  435.7701
  95  484.4696
  96  554.4901
  97  566.0264
  98  534.6361
  99  423.3714
 100  476.604
 101  475.852
 102  523.2045
 103  612.1459
 104  607.6306
 105  585.1666
 106  549.9665
 107  583.048
 108  618.2828
 109  634.53
 110  564.4042
 111  520.0986
 112  569.421
 113  571.1712
 114  459.8827
 115  434.0347
 116  538.7053
 117  583.2068
 118  604.9798
 119  577.9684
 120  522.7361
 121  540.4816
 122  652.2701
 123  610.8248
 124  619.8901
 125  611.6512
 126  629.0651
 127  676.7222
 128  667.0659
 129  474.7453
 130  537.6454
 131  562.5349
 132  563.5198
 133  561.6473
 134  604.069
 135  507.4061
 136  565.3047
 137  534.265
 138  569.1479
 139  627.369
 140  555.3086
 141  583.2171
 142  512.0612
 143  544.171
 144  541.289
 145  587.583
 146  546.046
 147  530.7492
 148  604.2347
 149  607.7437
 150  496.4064
 151  455.0034
 152  415.7864
 153  468.6393
 154  404.6217
 155  481.9917
 156  439.9645
 157  470.769
 158  507.1958
 159  495.0652
 160  502.7826
 161  462.5179
 162  431.0979
 163  418.1112
 164  483.5528
 165  498.467
 166  385.585
 167  360.8188
 168  503.6506
 169  490.4868
 170  536.4348
 171  543.5787
 172  464.5868
 173  458.686
 174  495.6128
 175  479.5182
 176  546.6351
 177  557.2423
 178  523.7915
 179  436.6248
 180  498.0724
 181  532.0358
 182  450.347
 183  416.8699
 184  471.7393
 185  540.3559
 186  503.1245
 187  377.7915
 188  402.1812
 189  423.003
 190  524.5334
 191  594.0103
 192  514.2441
 193  515.4169
 194  528.6
 195  424.0775
 196  418.8705
 197  489.4008
 198  487.1594
 199  542.5295
 200  526.1292
 201  631.5049
 202  681.4246
 203  633.5327
 204  441.0121
 205  471.3386
 206  506.109
 207  380.5617
 208  449.8071
 209  525.837
 210  583.1198
 211  577.2563
 212  459.7705
 213  374.2903
 214  489.408
 215  491.9965
 216  438.5114
 217  392.5979
 218  489.7309
 219  527.7139
 220  593.943
 221  628.3593
 222  568.9594
 223  504.251
 224  571.3638
 225  415.568
 226  388.4731
 227  534.4692
 228  553.3292
 229  452.1562
 230  484.6245
 231  529.3683
 232  668.1512
 233  572.9726
 234  395.0887
 235  431.3159
 236  474.9961
 237  436.5255
 238  542.2931
 239  542.2352
 240  553.785
 241  525.5009
 242  470.1183
 243  437.9532
 244  462.9197
 245  452.8615
 246  602.461
 247  467.6069
 248  434.9519
 249  482.3636
 250  595.2322
 251  605.2404
 252  465.0268
 253  373.9772
 254  480.9223
 255  537.1168
 256  609.39
 257  581.4822
 258  593.3994
 259  626.0605
 260  498.2956
 261  548.5343
 262  530.4551
 263  475.2002
 264  641.7349
 265  545.7505
 266  517.0511
 267  550.964
 268  545.8066
 269  528.584
 270  434.3879
 271  516.4276
 272  437.2492
 273  378.1653
 274  585.8232
 275  597.0882
 276  457.9307
 277  402.7276
 278  357.5655
 279  381.8735
 280  469.94
 281  567.9622
 282  566.8892
 283  524.6923
 284  454.9309
 285  461.968
 286  568.679
 287  624.1266
 288  664.0685
 289  597.9503
 290  637.6835
 291  574.0712
 292  486.6062
 293  680.8556
 294  651.6296
 295  606.818
 296  581.8602
 297  576.881
 298  474.6616
 299  483.4304
 300  525.7595
 301  572.1334
 302  589.7988
 303  507.7206
 304  512.3403
 305  526.4659
 306  616.7476
 307  682.7888
 308  627.0646
 309  517.2903
 310  538.9036
 311  584.5595
 312  471.5962
 313  476.4907
 314  632.1498
 315  654.584
 316  535.0834
 317  419.7099
 318  440.9019
 319  528.1106
 320  541.8121
 321  658.2897
 322  568.1713
 323  502.0497
 324  564.108
 325  451.9476
 326  482.3842
 327  532.5145
 328  531.6604
 329  424.2629
 330  567.1642
 331  601.5301
 332  463.9294
 333  474.1953
 334  549.5543
 335  426.1046
 336  398.8149
 337  517.3731
 338  570.2297
 339  606.0899
 340  652.2242
 341  640.0595
 342  632.4943
 343  597.8379
 344  576.4398
 345  554.9443
 346  557.0444
 347  726.8693
 348  594.2903
 349  520.3467
 350  543.2123
 351  609.0009
 352  657.629
 353  583.925
 354  556.4352
 355  472.5288
 356  484.223
 357  543.8315
 358  507.3681
 359  480.1972
 360  482.0773
 361  501.0278
 362  508.2368
 363  529.5341
 364  538.5966
 365  487.4761
 366  475.9747
 367  438.5671
 368  468.0414
 369  465.4604
 370  566.872
 371  550.1699
 372  476.9318
 373  448.2472
 374  419.1416
 375  505.4726
 376  437.2307
 377  363.3926
 378  388.087
 379  407.1296
 380  443.6808
 381  466.6975
 382  409.5156
 383  451.4798
 384  462.4302
 385  421.6485
 386  528.7937
 387  519.11
 388  537.9268
 389  562.4893
 390  546.1056
 391  482.0365
 392  463.248
 393  631.5793
 394  663.0117
 395  627.1751
 396  537.389
 397  441.2458
 398  460.809
 399  585.2967
 400  580.8047
 401  577.2803
 402  580.2756
 403  546.9566
 404  545.4176
 405  637.4695
 406  650.677
 407  732.8821
 408  604.092
 409  587.7162
 410  569.8054
 411  605.2429
 412  522.2456
 413  515.2929
 414  641.6027
 415  556.3959
 416  485.24
 417  519.5466
 418  558.213
 419  585.5567
 420  526.314
 421  467.3326
 422  445.8742
 423  443.1349
 424  561.4
 425  582.1126
 426  649.2252
 427  722.8967
 428  702.2842
 429  640.5808
 430  656.3331
 431  575.3695
 432  607.2432
 433  585.5699
 434  650.401
 435  565.4343
 436  493.6189
 437  468.9624
 438  522.5018
 439  627.7247
 440  549.7945
 441  641.1629
 442  554.6351
 443  636.7725
 444  650.5505
 445  555.0634
 446  544.6005
 447  557.882
 448  582.7971
 449  578.7366
 450  520.0151
 451  560.5217
 452  574.163
 453  523.8217
 454  506.7555
 455  473.0996
 456  511.3253
 457  481.128
 458  531.6243
 459  530.3498
 460  516.9775
 461  571.8749
 462  491.4464
 463  465.7854
 464  522.045
 465  585.956
 466  646.2836
 467  590.3973
 468  596.8869
 469  580.4011
 470  568.1098
 471  591.1016
 472  628.8423
 473  599.6384
 474  568.9631
 475  506.2867
 476  469.4817
 477  511.19
 478  528.0551
 479  601.9232
 480  645.6025
 481  626.3931
 482  549.3268
 483  581.4211
 484  578.902
 485  663.2588
 486  677.6615
 487  652.9203
 488  590.7455
 489  538.0777
 490  566.3351
 491  756.3775
 492  631.5556
 493  544.7882
 494  613.4636
 495  576.5066
 496  660.7476
 497  785.2887
 498  776.6752
 499  522.4597
 500  537.3647
 501  513.0122
 502  618.1565
 503  720.9212
 504  815.7839
 505  717.085
 506  593.1763
 507  757.2014
 508  915.3209
 509  944.3138
 510  1128.919
 511  1253.558
