# Input file       =  1211786751.104601_cleaned.dat
# Candidate        =  PSR_0332+5434
# Telescope        =  AR
# Epoch_topo       =  58269.309839173620
# Epoch_bary       =  N/A
# T_sample         =  0.002
# Data Folded      =  7340032
# Data Avg         =  0.109121749871909
# Data StdDev      =  3.61611009235866 
# Profile Bins     =  512
# Profile Avg      =  1564.20627438549 
# Profile StdDev   =  432.96784123077  
# Reduced chi-sqr  =  1.373
# Prob(Noise)      <  3.87e-08   (~5.4 sigma)
# P_topo (ms)      =  714.517614280601  +/- 1.98e-05
# P'_topo (s/s)    =  -0                +/- 1.04e-11
# P''_topo (s/s^2) =  0                 +/- 4.61e-15
# P_bary (ms)      =  N/A
# P'_bary (s/s)    =  N/A
# P''_bary (s/s^2) =  N/A
# P_orb (s)        =  N/A
# asin(i)/c (s)    =  N/A
# eccentricity     =  N/A
# w (rad)          =  N/A
# T_peri           =  N/A
######################################################
   0  991.767
   1  1446
   2  1323.57
   3  1163.015
   4  1232.299
   5  1427.219
   6  1247.183
   7  1250.006
   8  2130.489
   9  1938.946
  10  1300.37
  11  1510.548
  12  1528.099
  13  942.6102
  14  1202.7
  15  2004.881
  16  1653.346
  17  1302.933
  18  1406.199
  19  2054.786
  20  2036.91
  21  981.4882
  22  1333.353
  23  1488.248
  24  1035.734
  25  1197.286
  26  1596.841
  27  1476.699
  28  1294.41
  29  1150.795
  30  1234.877
  31  1231.805
  32  1086.208
  33  1796.457
  34  1796.936
  35  1235.911
  36  1365.712
  37  1600.713
  38  1674.732
  39  1354.161
  40  1200.379
  41  1481.907
  42  1310.092
  43  1683.038
  44  1871.663
  45  1631.966
  46  1752.752
  47  1776.547
  48  1826.77
  49  1515.733
  50  994.2762
  51  2026.638
  52  2011.801
  53  1312.06
  54  1441.916
  55  1610.464
  56  1349.157
  57  1110.088
  58  1736.304
  59  1558.445
  60  1084.437
  61  1540.668
  62  2114.535
  63  1496.43
  64  988.5774
  65  1057.448
  66  1359.696
  67  1096.095
  68  1472.247
  69  1768.122
  70  1563.027
  71  1129.784
  72  1449.135
  73  1711.733
  74  1671.23
  75  1964.677
  76  1784.712
  77  1983.507
  78  1726.636
  79  1499.504
  80  1844.337
  81  2022.772
  82  1650.922
  83  1625.125
  84  1621.634
  85  1228.969
  86  1391.991
  87  1664.212
  88  1641.638
  89  1538.654
  90  1555.105
  91  1289.197
  92  1350.541
  93  1555.886
  94  2069.365
  95  1908.669
  96  1111.908
  97  1203.181
  98  1678.627
  99  1259.423
 100  1239.983
 101  1701.397
 102  1920.923
 103  1284.032
 104  1310.352
 105  1432.495
 106  1451.785
 107  1082.825
 108  1975.876
 109  2089.746
 110  1294.9
 111  1384.407
 112  1341.196
 113  1367.717
 114  1502.578
 115  1671.503
 116  1295.302
 117  1354.358
 118  1726.902
 119  1724.886
 120  1415.355
 121  1288.722
 122  1330.744
 123  1231.577
 124  1626.254
 125  1658.021
 126  1810.585
 127  1930.751
 128  1602.521
 129  1750.561
 130  1882.161
 131  1824.659
 132  1607.656
 133  1941.443
 134  2404.182
 135  1999.523
 136  1554.398
 137  1890.396
 138  2155.325
 139  1800.39
 140  2092.74
 141  1830.842
 142  1459.571
 143  1230.738
 144  1703.427
 145  1619.513
 146  1309.277
 147  1498.614
 148  1690.595
 149  1475.481
 150  1299.899
 151  1806.459
 152  1733.688
 153  1333.487
 154  1243.909
 155  1340.291
 156  1071.049
 157  1384.845
 158  1742.157
 159  1476.719
 160  1167.171
 161  1033.538
 162  1377.704
 163  1306.235
 164  711.2239
 165  852.853
 166  1269.283
 167  1091.14
 168  1006.559
 169  1029.076
 170  1143.517
 171  958.7565
 172  995.572
 173  1509.829
 174  1528.604
 175  1359.934
 176  1706.881
 177  1920.234
 178  1543.973
 179  1253.646
 180  1936.599
 181  2137.616
 182  1920.199
 183  1845.443
 184  1546.809
 185  1140.391
 186  1305.449
 187  1870.603
 188  1752.617
 189  1632.985
 190  1623.239
 191  1806.992
 192  1766.993
 193  1587.07
 194  2095.29
 195  2047.979
 196  1305.271
 197  1507.327
 198  1826.807
 199  1450.619
 200  1244.602
 201  1901.393
 202  1819.037
 203  1258.036
 204  1314.79
 205  1575.403
 206  1819.402
 207  1421.716
 208  1268.346
 209  1267.935
 210  1076.029
 211  1385.178
 212  1927.747
 213  1992.1
 214  1847.915
 215  2146.498
 216  2064.857
 217  2036.647
 218  1750.559
 219  2161.068
 220  2185.956
 221  1967.955
 222  1752.582
 223  1627.219
 224  1579.084
 225  1377.404
 226  1892.132
 227  1717.462
 228  1537.162
 229  1394.464
 230  1735.229
 231  1816.2
 232  1212.567
 233  1324.619
 234  1595.71
 235  1451.263
 236  1468.628
 237  1361.309
 238  1328.014
 239  1270.687
 240  1403.373
 241  1448.054
 242  1136.219
 243  1235.748
 244  1404.786
 245  1772.855
 246  1509.194
 247  1398.118
 248  1797.629
 249  1603.41
 250  1279.29
 251  1488.309
 252  1829.217
 253  2011.865
 254  1611.231
 255  1644.198
 256  1562.405
 257  1408.756
 258  1796.8
 259  2129.864
 260  1598.133
 261  1457.118
 262  1633.081
 263  1569.903
 264  1335.208
 265  1457.301
 266  2011.112
 267  1567.119
 268  1429.188
 269  1543.811
 270  2052.78
 271  1649.397
 272  1771.139
 273  2136.528
 274  1934.892
 275  1540.907
 276  1548.633
 277  1768.887
 278  2187.781
 279  1667.149
 280  1601.536
 281  1784.168
 282  1453.839
 283  1614.95
 284  2425.898
 285  2527.446
 286  1444.393
 287  1559.135
 288  1765.272
 289  1426.336
 290  1815.012
 291  2492.016
 292  2402.512
 293  1663.544
 294  1954.885
 295  2768.31
 296  2557.356
 297  2913.181
 298  3617.421
 299  3437.636
 300  3339.371
 301  3497.036
 302  2641.096
 303  1842.141
 304  1641.905
 305  1853.604
 306  1986.295
 307  1853.874
 308  2044.363
 309  2389.88
 310  1910.386
 311  1985.218
 312  1961.783
 313  2350.922
 314  1595.311
 315  1719.964
 316  2284.694
 317  1667.908
 318  1322.621
 319  1978.193
 320  2076.49
 321  1794.079
 322  1842.453
 323  2191.981
 324  1978.143
 325  1536.74
 326  1416.885
 327  1718.233
 328  1504.852
 329  1374.341
 330  1491.568
 331  1604.733
 332  1168.234
 333  1175.845
 334  1500.459
 335  1520.391
 336  913.0997
 337  1070.442
 338  1499.135
 339  1300.278
 340  1287.143
 341  1493.971
 342  1532.353
 343  1441.267
 344  1811.852
 345  1648.973
 346  1289.944
 347  1636.573
 348  1744.745
 349  1780.736
 350  1528.227
 351  1757.357
 352  1484.7
 353  1142.368
 354  1565.155
 355  1516.872
 356  1570.845
 357  1062.311
 358  1312.726
 359  1862.049
 360  1495.657
 361  1124.62
 362  1508.599
 363  1684.299
 364  1536.612
 365  1252.205
 366  1289.607
 367  1380.986
 368  921.8469
 369  900.2506
 370  1226.009
 371  1410.157
 372  1288.875
 373  1594.459
 374  1522.979
 375  1184.849
 376  1329.958
 377  1412.879
 378  1696.864
 379  1415.076
 380  1377.01
 381  1704.379
 382  1333.282
 383  1468.599
 384  1680.332
 385  1474.892
 386  1631.604
 387  1755.371
 388  1412.459
 389  1118.584
 390  1386.788
 391  2190.072
 392  1796.744
 393  1299.067
 394  1176.601
 395  1634.584
 396  1412.188
 397  1477.152
 398  1489.542
 399  1249.975
 400  1027.237
 401  1289.27
 402  1851.964
 403  1841.53
 404  1664.339
 405  1884.175
 406  1715.541
 407  1496.055
 408  1520.267
 409  1818.3
 410  1513.687
 411  1361.26
 412  1564.733
 413  1473.955
 414  1154.923
 415  1276.509
 416  1700.225
 417  1756.914
 418  1539.682
 419  1576.198
 420  1974.406
 421  1852.302
 422  1602.53
 423  1788.116
 424  2087.092
 425  1670.027
 426  1864.958
 427  2329.668
 428  1551.286
 429  1305.546
 430  1650.808
 431  1664.288
 432  1516.51
 433  1651.485
 434  1537.843
 435  1833.899
 436  1396.333
 437  1349.047
 438  1756.733
 439  1701.566
 440  1734.641
 441  1614.775
 442  1568.891
 443  1337.168
 444  1577.746
 445  1787.576
 446  1562.536
 447  1216.962
 448  1740.396
 449  1638.911
 450  1326.627
 451  1023.326
 452  1285.972
 453  1152.896
 454  1217.824
 455  1404.875
 456  1615.716
 457  1246.739
 458  1241.837
 459  1561.203
 460  1707.786
 461  1138.126
 462  1214.538
 463  1444.113
 464  1586.811
 465  960.7254
 466  890.2056
 467  1239.704
 468  1146.064
 469  1231.533
 470  1769.409
 471  1350.55
 472  953.9861
 473  1426.533
 474  1397.878
 475  1381.405
 476  1158.366
 477  1475.079
 478  1450.409
 479  1191.682
 480  1449.189
 481  1332.119
 482  943.2152
 483  927.0982
 484  1390.727
 485  1585.756
 486  939.8292
 487  1244.387
 488  1578.639
 489  1349.326
 490  1354.865
 491  1598.185
 492  1773.64
 493  1601.787
 494  1360.043
 495  1223.773
 496  1125.905
 497  1089.725
 498  1317.19
 499  1641.285
 500  1644.526
 501  1752.035
 502  1872.587
 503  1271.971
 504  756.9362
 505  1253.421
 506  1242.873
 507  1111.475
 508  976.7109
 509  1466.897
 510  1613.82
 511  1332.364
