# Input file       =  1211700586.108932_cleaned.dat
# Candidate        =  PSR_0332+5434
# Telescope        =  AR
# Epoch_topo       =  58268.312559131155
# Epoch_bary       =  N/A
# T_sample         =  0.002
# Data Folded      =  7340032
# Data Avg         =  0.0842631092319997
# Data StdDev      =  3.1893766249152  
# Profile Bins     =  512
# Profile Avg      =  1208.18286821036 
# Profile StdDev   =  381.873747450179 
# Reduced chi-sqr  =  0.932
# Prob(Noise)      <  0.861   (~0.0 sigma)
# P_topo (ms)      =  714.518586638129  +/- 0.000182
# P'_topo (s/s)    =  -0                +/- 9.6e-11
# P''_topo (s/s^2) =  0                 +/- 4.24e-14
# P_bary (ms)      =  N/A
# P'_bary (s/s)    =  N/A
# P''_bary (s/s^2) =  N/A
# P_orb (s)        =  N/A
# asin(i)/c (s)    =  N/A
# eccentricity     =  N/A
# w (rad)          =  N/A
# T_peri           =  N/A
######################################################
   0  1308.378
   1  959.6764
   2  1136.139
   3  1220.177
   4  1303.37
   5  1412.302
   6  1525.595
   7  1378.063
   8  1169.562
   9  1436.213
  10  1293.702
  11  1186.308
  12  1341.145
  13  1318.487
  14  1065.258
  15  1161.994
  16  1446.754
  17  1676.559
  18  1608.252
  19  1526.136
  20  1384.497
  21  1286.934
  22  1326.895
  23  1064.555
  24  1426.413
  25  1411.347
  26  1127.03
  27  1112.517
  28  1167.729
  29  1003.498
  30  1036.802
  31  1174.839
  32  1121.179
  33  1040.009
  34  783.1351
  35  688.3007
  36  784.0907
  37  1291.525
  38  1345.059
  39  1204.433
  40  1211.48
  41  1335.309
  42  1255.783
  43  970.5989
  44  856.3196
  45  774.1845
  46  976.7548
  47  1061.763
  48  1290.253
  49  1379.486
  50  1217.674
  51  1205.748
  52  1157.053
  53  1069.965
  54  1415.908
  55  1387.856
  56  1003.387
  57  694.5757
  58  1032.923
  59  1362.827
  60  1121.92
  61  1083.093
  62  1265.158
  63  955.3384
  64  997.8512
  65  1542.441
  66  1529.83
  67  1396.291
  68  1404.1
  69  1260.607
  70  1092.588
  71  1006.113
  72  1101.27
  73  1174.131
  74  1531.463
  75  1265.979
  76  911.6778
  77  1165.382
  78  1054.483
  79  924.6089
  80  1188.344
  81  1236.457
  82  945.1132
  83  1342.747
  84  1452.797
  85  875.4756
  86  834.6539
  87  986.4045
  88  1132.12
  89  957.3716
  90  1083.778
  91  1128.26
  92  999.5584
  93  782.1957
  94  846.7624
  95  1088.143
  96  1089.686
  97  922.2878
  98  1348.017
  99  1368.399
 100  865.5779
 101  835.3078
 102  1192.024
 103  1022.238
 104  845.665
 105  1135.171
 106  1278.715
 107  1183.047
 108  1236.632
 109  1148.915
 110  1245.59
 111  1266.158
 112  1236.148
 113  996.689
 114  771.5315
 115  800.8232
 116  1041.045
 117  927.8406
 118  605.1029
 119  479.3696
 120  625.2705
 121  786.7051
 122  663.0099
 123  807.3259
 124  1361.853
 125  1214.254
 126  931.8466
 127  948.7188
 128  1214.948
 129  971.8906
 130  1148.629
 131  1282.397
 132  1297.59
 133  1151.11
 134  1396.114
 135  1201.183
 136  1005.011
 137  905.0096
 138  1113.113
 139  1246.352
 140  1258.679
 141  1200.539
 142  1236.543
 143  1082.092
 144  841.5555
 145  819.8137
 146  1157.306
 147  991.989
 148  1118.472
 149  1116.209
 150  1241.526
 151  1060.751
 152  1079.291
 153  1263.896
 154  1261.287
 155  1324.454
 156  1327.237
 157  1247.791
 158  1624.684
 159  1336.643
 160  1090.342
 161  818.0228
 162  977.8954
 163  1179.718
 164  1432.114
 165  1287.09
 166  1264.534
 167  1335.789
 168  1361.38
 169  1571.934
 170  1234.37
 171  1142.421
 172  1110.828
 173  1304.383
 174  1429.048
 175  1533.038
 176  1585.069
 177  1421.206
 178  1200.724
 179  1084.207
 180  1128.47
 181  1106.39
 182  1142.579
 183  803.1737
 184  1080.668
 185  1224.257
 186  931.3483
 187  558.2744
 188  738.1946
 189  1196.236
 190  1078.22
 191  1053.354
 192  1099.064
 193  1292.604
 194  1055.598
 195  955.2355
 196  887.377
 197  1092.924
 198  1061.541
 199  1123.231
 200  1001.897
 201  992.7222
 202  1113.684
 203  879.4064
 204  1108.818
 205  1096.807
 206  1227.708
 207  1108.691
 208  871.0552
 209  948.2679
 210  951.6767
 211  1122.265
 212  1115.62
 213  1171.511
 214  1443.932
 215  1621.086
 216  1155.012
 217  1188.459
 218  1072.575
 219  1217.643
 220  1338.634
 221  1569.63
 222  1803.417
 223  1525.491
 224  1245.395
 225  1198.189
 226  1440.016
 227  1056.904
 228  1242.944
 229  1123.507
 230  1401.419
 231  1321.342
 232  1331.559
 233  1378.707
 234  1162.609
 235  1321.698
 236  1424.439
 237  1409.455
 238  1269.27
 239  1033.857
 240  1309.937
 241  1391.259
 242  1018.138
 243  1195.509
 244  1014.155
 245  1293.137
 246  1304.417
 247  1406.413
 248  1336.099
 249  1276.981
 250  1338.602
 251  1556.01
 252  1307.401
 253  1408.745
 254  1174.804
 255  1355.407
 256  1603.258
 257  1150.104
 258  1136.176
 259  1092.049
 260  1234.693
 261  1388.847
 262  1433.163
 263  1157.983
 264  1334.216
 265  1131.172
 266  1235.744
 267  1149.384
 268  925.0196
 269  839.3585
 270  1073.896
 271  1227.347
 272  1192.459
 273  1430.86
 274  1210.043
 275  1389.444
 276  1527.755
 277  1046.079
 278  1275.197
 279  1254.359
 280  1487.754
 281  1349.045
 282  1266.995
 283  1315.822
 284  1185.426
 285  1226.843
 286  1247.147
 287  1242.577
 288  1229.441
 289  1095.391
 290  1435.218
 291  1361.094
 292  1650.287
 293  1226.159
 294  1313.119
 295  1529.274
 296  1572.266
 297  1566.543
 298  1478.747
 299  1652.105
 300  1275.102
 301  1275.969
 302  1844.473
 303  1690.641
 304  1395.404
 305  1717.448
 306  1817.667
 307  1722.002
 308  1447.694
 309  1112.673
 310  946.5308
 311  1075.318
 312  1277.206
 313  1398.286
 314  1600.826
 315  1610.333
 316  1362.33
 317  1517.417
 318  1578.071
 319  1817.639
 320  1740.29
 321  1845.783
 322  1655.942
 323  1239.581
 324  1199.933
 325  1099.161
 326  1360.027
 327  1318.83
 328  1221.427
 329  1570.386
 330  1478.7
 331  874.2329
 332  840.7167
 333  1285.542
 334  1103.232
 335  1122.283
 336  1542.297
 337  1469.32
 338  1550.465
 339  1542.198
 340  1231.92
 341  1168.659
 342  1300.079
 343  1270.063
 344  1264.562
 345  1450.267
 346  1324.026
 347  1333.507
 348  923.1103
 349  872.5142
 350  1031.631
 351  1362.573
 352  1389.571
 353  1438.448
 354  1702.645
 355  2401.764
 356  3067.302
 357  2780.562
 358  2160.203
 359  1629.629
 360  1365.572
 361  1381.35
 362  1161.63
 363  1000.319
 364  1256.429
 365  1247.956
 366  1166.917
 367  1080.117
 368  949.9366
 369  839.7176
 370  1169.823
 371  1197.763
 372  1134.022
 373  1347.174
 374  1389.211
 375  1270.962
 376  1224.972
 377  1229.946
 378  1277.819
 379  1305.641
 380  1388.735
 381  1174.52
 382  1333.029
 383  1212.559
 384  1071.068
 385  1258.213
 386  1055.926
 387  1353.531
 388  1158.405
 389  1201.827
 390  1399.673
 391  1288.494
 392  1063.06
 393  1419.708
 394  1402.806
 395  1392.857
 396  993.8352
 397  1227.667
 398  1408.5
 399  1298.248
 400  1002.29
 401  1116.355
 402  1326.384
 403  1128.455
 404  917.7266
 405  1121.751
 406  1202.674
 407  944.799
 408  792.7159
 409  999.5247
 410  843.8046
 411  672.7173
 412  1118.263
 413  1249.811
 414  826.1423
 415  865.2158
 416  874.9141
 417  1020.663
 418  849.4382
 419  855.1144
 420  1145.285
 421  749.4093
 422  741.0435
 423  1123.409
 424  1228.905
 425  977.3517
 426  852.7764
 427  998.7632
 428  994.601
 429  960.1446
 430  1276.939
 431  977.7009
 432  835.4294
 433  762.3158
 434  903.5565
 435  1202.331
 436  1038.742
 437  911.3782
 438  1058.581
 439  1283.42
 440  1353.32
 441  1159.617
 442  874.7229
 443  646.3172
 444  863.8893
 445  831.7893
 446  835.6266
 447  901.513
 448  920.3651
 449  984.0583
 450  883.1246
 451  1149.562
 452  948.858
 453  995.7518
 454  1163.463
 455  1342.907
 456  1271.814
 457  1260.831
 458  1104.503
 459  728.2581
 460  806.3809
 461  826.9766
 462  927.2333
 463  1086.939
 464  1099.147
 465  1342.17
 466  1466.193
 467  1633.722
 468  1539.788
 469  1491
 470  1166.021
 471  1235.805
 472  1195.183
 473  1209.909
 474  1487.609
 475  1389.469
 476  1365.624
 477  1204.527
 478  1032.379
 479  1043.336
 480  976.421
 481  885.8641
 482  904.3539
 483  937.1355
 484  1087.512
 485  1655.229
 486  1339.783
 487  1358.46
 488  1103.69
 489  1154.53
 490  1502.715
 491  1371.975
 492  1191.8
 493  1373.419
 494  1394.195
 495  1669.975
 496  1345.082
 497  1537.543
 498  1478.86
 499  1101.226
 500  1206.309
 501  1493.042
 502  1274.842
 503  1360.005
 504  1840.096
 505  1762.534
 506  1115.867
 507  1162.121
 508  1318.928
 509  1329.148
 510  1626.573
 511  1642.173
