# Input file       =  1211786751.104601_cleaned.dat
# Candidate        =  PSR_0332+5434
# Telescope        =  AR
# Epoch_topo       =  58269.309839173620
# Epoch_bary       =  N/A
# T_sample         =  0.002
# Data Folded      =  7340032
# Data Avg         =  0.109121749871909
# Data StdDev      =  3.61611009235866 
# Profile Bins     =  512
# Profile Avg      =  1564.20627437154 
# Profile StdDev   =  432.96784123077  
# Reduced chi-sqr  =  1.366
# Prob(Noise)      <  6.52e-08   (~5.3 sigma)
# P_topo (ms)      =  714.517614255896  +/- 1.99e-05
# P'_topo (s/s)    =  -0                +/- 1.05e-11
# P''_topo (s/s^2) =  0                 +/- 4.63e-15
# P_bary (ms)      =  N/A
# P'_bary (s/s)    =  N/A
# P''_bary (s/s^2) =  N/A
# P_orb (s)        =  N/A
# asin(i)/c (s)    =  N/A
# eccentricity     =  N/A
# w (rad)          =  N/A
# T_peri           =  N/A
######################################################
   0  1969.323
   1  1935.232
   2  1850.1
   3  2284.027
   4  2152.843
   5  1932.189
   6  1896.739
   7  2242.183
   8  2039.494
   9  1509.689
  10  2065.021
  11  2080.842
  12  1327.971
  13  1660.78
  14  2116.259
  15  1903.816
  16  1794.82
  17  2031.531
  18  2185.854
  19  1708.347
  20  1399.267
  21  1605.078
  22  1617.52
  23  1378.199
  24  1415.688
  25  1663.389
  26  1404.431
  27  1077.567
  28  1376.381
  29  1591.822
  30  1246.265
  31  770.3045
  32  1370.107
  33  1458.692
  34  1256.276
  35  1352.54
  36  1592.647
  37  1413.975
  38  1661.725
  39  1801.518
  40  1433.262
  41  1424.662
  42  1707.635
  43  1758.38
  44  1673.903
  45  1590.639
  46  1729.995
  47  1195.231
  48  1336.086
  49  1622.223
  50  1527.244
  51  1384.751
  52  1008.283
  53  1650.108
  54  1798.837
  55  1203.937
  56  1283.02
  57  1626.556
  58  1612.059
  59  1466.375
  60  1167.415
  61  1389.042
  62  1124.307
  63  886.1018
  64  1091.287
  65  1386.605
  66  1287.37
  67  1389.319
  68  1721.406
  69  1253.93
  70  1213.716
  71  1390.653
  72  1594.97
  73  1579.283
  74  1286.854
  75  1567.115
  76  1640.966
  77  1228.506
  78  1684.237
  79  1515.171
  80  1616.854
  81  1709.688
  82  1600.853
  83  1277.821
  84  1111.99
  85  1833.392
  86  2106
  87  1545.689
  88  1133.929
  89  1443.517
  90  1549.884
  91  1342.145
  92  1567.991
  93  1348.48
  94  1175.758
  95  1057.147
  96  1578.355
  97  1903.207
  98  1744.233
  99  1756.443
 100  1845.46
 101  1578.59
 102  1469.893
 103  1751.739
 104  1682.497
 105  1328.851
 106  1500.011
 107  1625.252
 108  1309.306
 109  1054.632
 110  1510.53
 111  1788.429
 112  1708.91
 113  1449.477
 114  1820.947
 115  1948.962
 116  1737.728
 117  1522.942
 118  2122.548
 119  1862.823
 120  1671.587
 121  2114.63
 122  2107.018
 123  1292.141
 124  1514.015
 125  1658.82
 126  1553.715
 127  1610.622
 128  1576.682
 129  1672.775
 130  1684.741
 131  1267.326
 132  1534.844
 133  1870.807
 134  1634.713
 135  1697.999
 136  1558.865
 137  1488.832
 138  1419.539
 139  1690.61
 140  1740.739
 141  1265.435
 142  1502.164
 143  1753.611
 144  1478.093
 145  1146.109
 146  1117.388
 147  1325.053
 148  1095.325
 149  1343.766
 150  1569.149
 151  1397.242
 152  1183.585
 153  1309.529
 154  1843.062
 155  1345.734
 156  1172.933
 157  1248.366
 158  1676.93
 159  1239.844
 160  858.8281
 161  1042.085
 162  1329.726
 163  1020.337
 164  1537.791
 165  1690.455
 166  1059.303
 167  1169.192
 168  1438.617
 169  1387.502
 170  1292.75
 171  1222.872
 172  1605.39
 173  1213.96
 174  1348.512
 175  1402.784
 176  1168.552
 177  856.8469
 178  1135.489
 179  1556.353
 180  1333.453
 181  962.006
 182  1527.388
 183  1412.587
 184  1334.669
 185  1435.605
 186  1723.641
 187  1713.788
 188  1478.064
 189  1327.88
 190  1099.826
 191  1106.683
 192  1139.045
 193  1557.394
 194  1634.452
 195  1671.84
 196  1857.271
 197  1691.11
 198  884.6541
 199  930.8225
 200  1353.442
 201  1190.098
 202  994.7767
 203  1135.398
 204  1671.332
 205  1546.977
 206  1093.413
 207  1142.496
 208  1481.885
 209  1235.867
 210  1131.313
 211  1343.266
 212  1391.521
 213  1138.4
 214  1669.894
 215  2220.564
 216  1590.04
 217  1256.932
 218  1674.307
 219  1168.481
 220  984.1418
 221  1641.907
 222  1950.95
 223  1406.296
 224  1301.818
 225  1659.307
 226  2245.949
 227  1473.133
 228  1044.249
 229  1515.67
 230  1260.165
 231  978.861
 232  1524.206
 233  1491.262
 234  1418.119
 235  1158.885
 236  1246.693
 237  1204.646
 238  1142.561
 239  1342.319
 240  2077.103
 241  1394.926
 242  1287.863
 243  1452.155
 244  1712.394
 245  1549.562
 246  1162.703
 247  1395.864
 248  1388.611
 249  1419.164
 250  1843.852
 251  1739.315
 252  1683.777
 253  1796.198
 254  1765.639
 255  1812.307
 256  1106.411
 257  1400.174
 258  2248.829
 259  1594.012
 260  1377.185
 261  1511.359
 262  1567.517
 263  1104.151
 264  1385.896
 265  1756.862
 266  1320.111
 267  1141.388
 268  2004.739
 269  1806.054
 270  1252.669
 271  893.2126
 272  1325.243
 273  1152.733
 274  1225.633
 275  1678.626
 276  1745.375
 277  1262.483
 278  1300.535
 279  1594.545
 280  1704.516
 281  1726.539
 282  1973.911
 283  1854.888
 284  1946.538
 285  1523.958
 286  1623.09
 287  2044.431
 288  1783.944
 289  1573.467
 290  1687.823
 291  1462.428
 292  1213.154
 293  1520.563
 294  1758.914
 295  1515.722
 296  1666.125
 297  1329.653
 298  1363.165
 299  1341.907
 300  1869.708
 301  2064.451
 302  1536.561
 303  983.6309
 304  1513.737
 305  1558.932
 306  1104.884
 307  1469.617
 308  1906.895
 309  1654.986
 310  1210.145
 311  1334.524
 312  1505.207
 313  1201.016
 314  1495.144
 315  2223.592
 316  1621.468
 317  1264.338
 318  1459.293
 319  1317.833
 320  1342.892
 321  1645.41
 322  1539.577
 323  1261.661
 324  1527.817
 325  1811.275
 326  1606.576
 327  1242.219
 328  1365.421
 329  1168.81
 330  1512.777
 331  1608.103
 332  1711.233
 333  1927.836
 334  1790.749
 335  1632.482
 336  1799.709
 337  1921.061
 338  1669.447
 339  1748.154
 340  2147.61
 341  2395.977
 342  1662.119
 343  1648.696
 344  2099.393
 345  1967.401
 346  1917.822
 347  2006.9
 348  1676.31
 349  1231.846
 350  1517.183
 351  1715.921
 352  1417.587
 353  1355.991
 354  1640.954
 355  1632.515
 356  1299.18
 357  1564.834
 358  1841.421
 359  1506.668
 360  1220.797
 361  1380.07
 362  1192.296
 363  1119.446
 364  1609.663
 365  1699.784
 366  1309.075
 367  1086.954
 368  1142.295
 369  1486.116
 370  968.0193
 371  651.6351
 372  1157.09
 373  1195.405
 374  1033.665
 375  975.9886
 376  1104.233
 377  1071.499
 378  922.5778
 379  1202.196
 380  1662.238
 381  1377.133
 382  1506.387
 383  1833.755
 384  1846.621
 385  1280.733
 386  1565.531
 387  2150.047
 388  1991.817
 389  1870.232
 390  1708.661
 391  1353.328
 392  1122.344
 393  1646.962
 394  1861.957
 395  1648.059
 396  1615.967
 397  1683.864
 398  1827.935
 399  1690.018
 400  1712.582
 401  2335.444
 402  1485.65
 403  1405.497
 404  1674.741
 405  1740.581
 406  1192.853
 407  1565.488
 408  2083.004
 409  1469.909
 410  1192.017
 411  1422.676
 412  1789.111
 413  1635.377
 414  1324.691
 415  1223.808
 416  1267.056
 417  1044.492
 418  1720.602
 419  1982.161
 420  1955.177
 421  1958.277
 422  2138.142
 423  2078.689
 424  1871.392
 425  1885.59
 426  2277.56
 427  2073.763
 428  1903.811
 429  1622.745
 430  1654.336
 431  1411.698
 432  1598.312
 433  1914.757
 434  1589.245
 435  1476.091
 436  1448.686
 437  1872.357
 438  1518.903
 439  1217.719
 440  1486.265
 441  1553.177
 442  1380.863
 443  1474.269
 444  1343.115
 445  1272.063
 446  1337.34
 447  1450.102
 448  1343.821
 449  1091.823
 450  1343.986
 451  1607.256
 452  1695.503
 453  1325.859
 454  1569.764
 455  1837.669
 456  1374.127
 457  1312.074
 458  1713.31
 459  1982.526
 460  1851.571
 461  1493.917
 462  1720.429
 463  1465.854
 464  1531.843
 465  2048.095
 466  1887.576
 467  1454.352
 468  1548.398
 469  1647.073
 470  1463.233
 471  1272.318
 472  1803.882
 473  1844.831
 474  1442.327
 475  1446.2
 476  1816.926
 477  1970.124
 478  1553.406
 479  2028.122
 480  2033.437
 481  1772.603
 482  1485.918
 483  1621.818
 484  1974.588
 485  2035.309
 486  1553.97
 487  1760.761
 488  1618.385
 489  1413.24
 490  2024.421
 491  2625.11
 492  2043.693
 493  1283.259
 494  1840.91
 495  1522.288
 496  1505.529
 497  2197.298
 498  2634.093
 499  1978.977
 500  1598.35
 501  2425.158
 502  2759.284
 503  2562.375
 504  3366.966
 505  3614.496
 506  3336.649
 507  3439.177
 508  3196.224
 509  2161.017
 510  1691.718
 511  1726.223
