# Input file       =  1211858286.131636_cleaned.dat
# Candidate        =  PSR_0332+5434
# Telescope        =  AR
# Epoch_topo       =  58270.137790875415
# Epoch_bary       =  N/A
# T_sample         =  0.002
# Data Folded      =  7143424
# Data Avg         =  0.0657277408600173
# Data StdDev      =  1.0000563130323  
# Profile Bins     =  512
# Profile Avg      =  917.016390685876 
# Profile StdDev   =  118.125236097531 
# Reduced chi-sqr  =  1.419
# Prob(Noise)      <  1.27e-09   (~6.0 sigma)
# P_topo (ms)      =  714.516795628459  +/- 0.000336
# P'_topo (s/s)    =  -0                +/- 1.82e-10
# P''_topo (s/s^2) =  0                 +/- 8.27e-14
# P_bary (ms)      =  N/A
# P'_bary (s/s)    =  N/A
# P''_bary (s/s^2) =  N/A
# P_orb (s)        =  N/A
# asin(i)/c (s)    =  N/A
# eccentricity     =  N/A
# w (rad)          =  N/A
# T_peri           =  N/A
######################################################
   0  1627.189
   1  1568.624
   2  1375.134
   3  1102.448
   4  1059.983
   5  1074.212
   6  1059.683
   7  973.816
   8  927.8794
   9  984.57
  10  915.72
  11  1038.927
  12  960.0962
  13  846.9511
  14  990.4659
  15  993.5442
  16  947.4636
  17  922.4969
  18  1012.325
  19  1092.873
  20  926.941
  21  897.4036
  22  963.425
  23  960.7713
  24  896.6044
  25  944.535
  26  1055.98
  27  989.6896
  28  985.8108
  29  1030.78
  30  999.5971
  31  966.1023
  32  929.152
  33  1013.856
  34  1019.509
  35  888.9644
  36  959.5355
  37  948.1647
  38  834.0215
  39  887.3326
  40  908.6763
  41  937.9299
  42  896.9501
  43  907.4769
  44  872.9457
  45  900.2516
  46  977.1478
  47  872.1473
  48  871.24
  49  898.3503
  50  883.6376
  51  902.6522
  52  935.1258
  53  991.8358
  54  992.4535
  55  950.0618
  56  818.9232
  57  795.8244
  58  898.387
  59  837.3552
  60  795.6974
  61  878.9542
  62  837.1314
  63  806.8774
  64  905.1392
  65  1027.265
  66  899.7876
  67  908.2194
  68  985.8187
  69  931.7473
  70  922.2189
  71  920.556
  72  980.7018
  73  997.0469
  74  770.6788
  75  698.1124
  76  903.9434
  77  926.556
  78  753.7168
  79  789.0896
  80  848.3897
  81  908.8732
  82  902.0288
  83  1011.027
  84  953.6984
  85  936.0084
  86  976.2527
  87  961.5222
  88  970.766
  89  1006.247
  90  969.8505
  91  933.7188
  92  992.3343
  93  1023.501
  94  926.1835
  95  930.8899
  96  954.1885
  97  889.629
  98  878.6014
  99  955.0154
 100  919.6805
 101  831.4947
 102  899.3013
 103  887.6909
 104  953.8511
 105  963.8372
 106  886.1223
 107  873.4307
 108  881.6849
 109  926.1401
 110  967.8144
 111  928.8858
 112  822.5235
 113  812.2379
 114  854.2506
 115  888.1601
 116  914.2866
 117  932.5254
 118  1007.249
 119  972.6121
 120  894.0161
 121  903.3361
 122  898.9659
 123  843.9528
 124  844.0987
 125  896.8162
 126  852.7137
 127  916.4259
 128  845.1196
 129  828.9072
 130  821.2019
 131  786.7218
 132  829.5764
 133  886.798
 134  1038.468
 135  938.9948
 136  818.6813
 137  882.897
 138  844.9594
 139  818.6403
 140  867.4074
 141  906.7141
 142  870.5385
 143  812.7526
 144  783.8568
 145  774.8001
 146  884.0344
 147  933.2621
 148  832.3144
 149  772.0583
 150  832.2275
 151  843.8928
 152  918.5083
 153  833.6712
 154  874.9742
 155  908.5924
 156  862.8925
 157  796.6967
 158  764.1351
 159  860.0352
 160  797.5142
 161  873.9478
 162  880.784
 163  819.5419
 164  830.2714
 165  840.0101
 166  938.1215
 167  1019.238
 168  856.7596
 169  887.249
 170  847.0893
 171  907.0308
 172  896.2032
 173  906.0984
 174  756.2913
 175  772.5916
 176  938.2374
 177  921.6559
 178  880.2379
 179  999.6766
 180  996.011
 181  1055.083
 182  1020.075
 183  895.3851
 184  922.6456
 185  948.2589
 186  949.6652
 187  1053.001
 188  1029.594
 189  888.7859
 190  847.7239
 191  893.5032
 192  1009.838
 193  987.7165
 194  968.8544
 195  949.8207
 196  1006.495
 197  977.2562
 198  882.23
 199  804.2549
 200  898.8304
 201  946.2924
 202  930.3674
 203  913.061
 204  813.0593
 205  888.3542
 206  939.6572
 207  947.1021
 208  918.2229
 209  899.7556
 210  1128.383
 211  1052.54
 212  952.299
 213  894.7188
 214  984.0465
 215  1002.984
 216  1024.215
 217  938.7628
 218  1031.211
 219  921.0338
 220  977.9008
 221  954.3319
 222  926.4886
 223  1001.393
 224  899.9526
 225  851.1741
 226  956.4025
 227  915.2994
 228  918.4717
 229  997.844
 230  931.0731
 231  920.0667
 232  875.0355
 233  944.9933
 234  1036.769
 235  1062.072
 236  1017.194
 237  938.4851
 238  917.192
 239  875.9725
 240  858.9294
 241  868.3575
 242  921.6025
 243  981.0707
 244  878.0909
 245  848.5671
 246  814.3884
 247  878.5283
 248  913.8273
 249  908.259
 250  947.3317
 251  946.7773
 252  843.5829
 253  893.1247
 254  983.4736
 255  965.5156
 256  855.7917
 257  817.2076
 258  979.4887
 259  928.8786
 260  832.4926
 261  939.2454
 262  920.9139
 263  938.9647
 264  934.0428
 265  966.6276
 266  977.2214
 267  968.2044
 268  1028.599
 269  954.301
 270  984.3245
 271  1011.504
 272  975.4666
 273  938.3653
 274  937.5004
 275  1082.806
 276  1028.286
 277  830.0737
 278  802.3392
 279  871.8758
 280  823.3811
 281  797.9506
 282  973.6185
 283  1119.249
 284  1043.908
 285  962.3087
 286  907.8396
 287  864.4611
 288  791.1918
 289  885.9175
 290  921.311
 291  957.1771
 292  917.7609
 293  738.5369
 294  824.7982
 295  1015.792
 296  1036.618
 297  839.149
 298  942.9974
 299  1019.927
 300  1008.067
 301  937.5875
 302  840.1246
 303  820.8839
 304  744.8764
 305  823.8961
 306  815.5312
 307  918.4767
 308  842.3477
 309  970.6936
 310  912.0955
 311  914.3836
 312  929.9133
 313  882.2835
 314  862.2476
 315  868.3444
 316  784.4606
 317  737.8971
 318  845.7363
 319  967.2492
 320  926.1277
 321  933.5692
 322  923.7211
 323  764.1879
 324  795.3164
 325  873.6853
 326  895.2463
 327  817.2111
 328  886.1705
 329  927.5141
 330  982.139
 331  915.5861
 332  919.6576
 333  920.8001
 334  945.4991
 335  855.4458
 336  864.4136
 337  843.4113
 338  839.3635
 339  850.1712
 340  888.5661
 341  973.9678
 342  950.2405
 343  800.5814
 344  859.6647
 345  882.199
 346  914.8221
 347  884.8478
 348  886.2742
 349  1056.667
 350  1012.953
 351  949.4951
 352  887.6863
 353  977.7813
 354  931.323
 355  859.259
 356  979.0584
 357  984.5752
 358  976.1837
 359  850.2077
 360  766.9082
 361  1016.601
 362  956.2504
 363  879.1356
 364  903.7172
 365  1009.396
 366  986.0174
 367  913.7014
 368  854.8469
 369  966.1212
 370  932.9387
 371  921.7068
 372  972.5623
 373  894.9849
 374  881.1844
 375  937.7008
 376  946.3915
 377  913.2673
 378  972.7356
 379  963.5881
 380  791.5645
 381  708.7151
 382  905.9326
 383  997.8173
 384  955.7543
 385  946.8716
 386  974.2953
 387  833.2292
 388  849.6039
 389  850.6038
 390  750.469
 391  783.5378
 392  912.7841
 393  963.583
 394  945.3905
 395  892.731
 396  890.3503
 397  943.9665
 398  919.7603
 399  904.3767
 400  878.6115
 401  932.4299
 402  1054.445
 403  1006.214
 404  945.2988
 405  939.1534
 406  884.9301
 407  774.4158
 408  934.2996
 409  928.6172
 410  856.0325
 411  859.1471
 412  785.6584
 413  883.7888
 414  925.3626
 415  939.209
 416  910.2487
 417  793.1117
 418  752.4816
 419  817.8243
 420  789.6891
 421  862.3856
 422  822.4628
 423  848.8217
 424  784.0551
 425  774.4585
 426  785.4869
 427  753.3923
 428  777.6058
 429  711.8766
 430  886.6857
 431  855.5659
 432  838.0922
 433  848.7612
 434  921.9175
 435  830.3999
 436  799.4384
 437  850.2595
 438  823.9074
 439  860.925
 440  828.6519
 441  795.2842
 442  806.1122
 443  621.6738
 444  626.5076
 445  835.7656
 446  834.8287
 447  782.1101
 448  875.1815
 449  916.2877
 450  870.69
 451  871.4899
 452  788.7091
 453  712.9507
 454  720.1693
 455  810.0411
 456  821.79
 457  767.0064
 458  819.9566
 459  868.3479
 460  882.8492
 461  887.0119
 462  844.1581
 463  741.0999
 464  802.2595
 465  921.6783
 466  922.0888
 467  978.6373
 468  1030.677
 469  1053.096
 470  983.3724
 471  904.9296
 472  966.6593
 473  1042.879
 474  1052.89
 475  916.3715
 476  888.9042
 477  922.9241
 478  990.585
 479  999.6748
 480  1037.9
 481  940.4885
 482  995.9728
 483  1028.919
 484  951.3644
 485  878.8223
 486  910.8915
 487  958.0613
 488  811.6311
 489  924.3595
 490  962.788
 491  968.8984
 492  1055.352
 493  921.5714
 494  941.9796
 495  1043.551
 496  1073.799
 497  1087.983
 498  981.2267
 499  937.9044
 500  1113.826
 501  1122.976
 502  964.5134
 503  845.3815
 504  992.8433
 505  1016.249
 506  1019.448
 507  1172.181
 508  1214.402
 509  1229.941
 510  1424.093
 511  1549.566
