# Input file       =  1211030064.097827_cleaned.dat
# Candidate        =  PSR_0332+5434
# Telescope        =  AR
# Epoch_topo       =  58260.551887706330
# Epoch_bary       =  N/A
# T_sample         =  0.002
# Data Folded      =  7340032
# Data Avg         =  0.754978484060429
# Data StdDev      =  6.22952073160826 
# Profile Bins     =  1024
# Profile Avg      =  5411.77901742864 
# Profile StdDev   =  527.416404574611 
# Reduced chi-sqr  =  1.170
# Prob(Noise)      <  0.00013   (~3.7 sigma)
# P_topo (ms)      =  714.526617972847  +/- 2.65e-05
# P'_topo (s/s)    =  -0                +/- 1.4e-11
# P''_topo (s/s^2) =  0                 +/- 6.17e-15
# P_bary (ms)      =  N/A
# P'_bary (s/s)    =  N/A
# P''_bary (s/s^2) =  N/A
# P_orb (s)        =  N/A
# asin(i)/c (s)    =  N/A
# eccentricity     =  N/A
# w (rad)          =  N/A
# T_peri           =  N/A
######################################################
   0  5583.542
   1  5647.812
   2  5729.323
   3  5811.942
   4  5882.209
   5  5620.567
   6  5542.048
   7  5620.598
   8  5619.098
   9  5482.262
  10  5433.801
  11  5716.618
  12  5678.016
  13  5503.841
  14  5465.214
  15  5581.15
  16  5533.01
  17  5574.974
  18  5694.78
  19  5534.556
  20  5404.896
  21  5410.646
  22  5720.893
  23  5648.263
  24  5524.968
  25  5579.369
  26  5493.714
  27  5563.799
  28  5616.471
  29  5768.362
  30  5664.599
  31  5602.993
  32  5713.816
  33  5851.45
  34  5716
  35  5595.788
  36  5644.352
  37  5636.604
  38  5570.655
  39  5500.056
  40  5401.545
  41  5260.974
  42  5250.297
  43  5473.137
  44  5837.464
  45  5858.552
  46  5889.81
  47  5559.492
  48  5437.937
  49  5354.693
  50  5428.017
  51  5520.227
  52  5460.782
  53  5324.669
  54  5216.138
  55  5093.551
  56  5202.143
  57  5505.917
  58  5718.878
  59  5684.839
  60  5607.818
  61  5606.129
  62  5370.187
  63  5206.813
  64  5060.248
  65  5186.339
  66  5243.806
  67  5211.863
  68  5219.381
  69  5094.795
  70  5030.733
  71  5032.776
  72  5339.616
  73  5525.417
  74  5561.855
  75  5366.272
  76  5423.415
  77  5396.166
  78  5334.117
  79  5247.148
  80  5338.665
  81  5380.766
  82  5572.143
  83  5692.27
  84  5661.784
  85  5387.85
  86  5195.032
  87  5235.578
  88  5163.566
  89  5207.151
  90  5185.12
  91  5346.129
  92  5330.348
  93  5298.536
  94  5382.811
  95  5378.118
  96  5679.229
  97  5627.321
  98  5777.869
  99  5658.971
 100  5489.143
 101  5488.571
 102  5383.623
 103  5284.997
 104  5075.757
 105  5180.835
 106  5333.809
 107  5291.877
 108  5362.827
 109  5596.751
 110  5588.916
 111  5446.678
 112  5492.421
 113  5811.013
 114  5694.993
 115  5680.854
 116  5476.714
 117  5575.068
 118  5429.345
 119  5185.492
 120  5117.646
 121  5168.623
 122  5241.338
 123  5487.583
 124  5661.647
 125  5785.746
 126  5796.634
 127  5984.382
 128  5948.381
 129  5438.72
 130  4944.801
 131  4832.198
 132  4880.686
 133  4906.259
 134  4956.137
 135  5147.104
 136  5164.296
 137  5244.628
 138  5386.258
 139  5525.212
 140  5425.88
 141  5432.483
 142  5493.186
 143  5503.107
 144  5387.503
 145  5333.026
 146  5274.704
 147  5085.729
 148  5216.006
 149  5421.703
 150  5479.041
 151  5332.231
 152  5256.295
 153  5365.892
 154  5410.842
 155  5256.65
 156  5186.864
 157  5232.734
 158  5231.111
 159  5191.696
 160  5199.759
 161  5108.522
 162  5098.265
 163  5203.933
 164  5341.117
 165  5251.097
 166  5055.788
 167  4977.548
 168  5067.767
 169  4955.936
 170  5072.4
 171  5270.119
 172  5536.222
 173  5454.214
 174  5161.208
 175  5119.306
 176  5282.978
 177  5349.022
 178  5461.922
 179  5372.945
 180  5435.258
 181  5214.177
 182  5209.515
 183  5239.104
 184  5236.29
 185  5282.187
 186  5293.786
 187  5291.413
 188  5359.793
 189  5591.438
 190  5737.507
 191  5583.795
 192  5531.379
 193  5825.002
 194  5799.03
 195  5415.226
 196  5030.152
 197  4917.866
 198  4859.693
 199  4731.741
 200  4711.326
 201  4801.854
 202  5203.158
 203  5460.777
 204  5655.696
 205  5554.637
 206  5400.957
 207  5350.519
 208  5307.919
 209  5334.893
 210  5136.755
 211  4951.611
 212  4885.565
 213  4827.349
 214  4859.561
 215  5168.569
 216  5458.684
 217  5364.859
 218  5331.147
 219  5412.033
 220  5368.546
 221  5132.088
 222  5068.954
 223  5252.222
 224  5114.77
 225  4995.536
 226  5053.878
 227  5226.193
 228  5309.29
 229  5282.992
 230  5491.08
 231  5416.151
 232  5238.897
 233  5265.365
 234  5357.046
 235  5225.47
 236  5158.725
 237  5350.541
 238  5399.441
 239  5257.733
 240  5197.295
 241  5242.032
 242  5235.884
 243  5333.769
 244  5585.609
 245  5743.339
 246  5466.6
 247  5276.527
 248  5195.916
 249  5177.673
 250  5177.669
 251  5162.657
 252  5212.926
 253  5080.818
 254  5031.119
 255  5105.07
 256  5252.277
 257  5257.729
 258  5349.625
 259  5445.561
 260  5510.438
 261  5134.184
 262  4869.374
 263  4897.968
 264  4888.09
 265  4810.653
 266  4806.78
 267  4923.312
 268  4865.449
 269  5100.897
 270  5325.858
 271  5475.243
 272  5294.2
 273  5470.777
 274  5625.555
 275  5587.94
 276  5448.21
 277  5288.026
 278  5270.755
 279  5021.254
 280  4985.515
 281  5100.723
 282  5437.641
 283  5546.549
 284  5582.161
 285  5239.972
 286  5072.953
 287  4899.523
 288  5002.444
 289  5165.57
 290  5055.599
 291  5069.228
 292  5189.848
 293  5291.46
 294  5318.411
 295  5438.964
 296  5652.384
 297  5464.402
 298  5126.312
 299  5113.937
 300  5118.682
 301  5090.355
 302  5030.679
 303  5256.346
 304  5505.773
 305  5556.649
 306  5557.468
 307  5671.77
 308  5893.566
 309  5808.447
 310  6048.239
 311  6204.333
 312  5930.313
 313  5723.393
 314  5593.001
 315  5293.009
 316  4952.262
 317  4835.17
 318  5076.809
 319  4971.673
 320  5083.378
 321  5305.688
 322  5522.868
 323  5515.215
 324  5643.073
 325  5668.716
 326  5416.543
 327  5032.145
 328  5062.628
 329  5085.924
 330  4954.137
 331  4653.593
 332  4770.635
 333  4934.554
 334  5056.363
 335  4977.853
 336  5202.068
 337  5247.831
 338  5214.756
 339  5273.548
 340  5288.829
 341  5139.781
 342  4835.749
 343  4972.526
 344  5137.576
 345  5082.075
 346  5303.892
 347  5554.2
 348  5614.744
 349  5407.699
 350  5322.055
 351  5370.968
 352  5097.265
 353  5198.585
 354  5241.776
 355  5362.893
 356  5232.69
 357  4985.47
 358  4994.59
 359  4885.176
 360  5010.917
 361  5036.928
 362  5306.78
 363  5457.29
 364  5605.356
 365  5834.593
 366  5736.548
 367  5472.433
 368  5349.938
 369  5316.072
 370  5249.999
 371  4831.227
 372  4827.758
 373  4837.809
 374  4985.629
 375  5103.833
 376  5361.343
 377  5559.533
 378  5364.474
 379  5271.029
 380  5243.411
 381  5203.327
 382  5135.093
 383  5163.587
 384  5262.935
 385  5069.399
 386  5072.478
 387  5142.871
 388  5277.194
 389  5342.865
 390  5440.669
 391  5497.831
 392  5307.946
 393  5319.533
 394  5356.856
 395  5381.972
 396  5105.814
 397  4881.755
 398  5116.945
 399  5137.669
 400  5133.551
 401  5236.099
 402  5362.491
 403  5452.106
 404  5430.281
 405  5732.102
 406  5745.981
 407  5642.619
 408  5492.496
 409  5177.206
 410  5040.567
 411  4903.262
 412  5092.234
 413  5247.046
 414  5423.757
 415  5636.787
 416  5733.193
 417  5729.016
 418  5408.586
 419  5349.968
 420  5328.715
 421  5266.267
 422  5254.246
 423  5245.561
 424  5424.852
 425  5334.293
 426  5415.167
 427  5475.895
 428  5541.633
 429  5605.843
 430  5578.518
 431  5529.066
 432  5410.576
 433  5068.801
 434  4968.465
 435  4808.679
 436  4840.276
 437  4749.359
 438  4769.534
 439  4926.768
 440  5284.417
 441  5585.681
 442  5876.921
 443  5949.544
 444  5687.029
 445  5519.083
 446  5363.227
 447  5182.645
 448  5047.715
 449  5017.361
 450  5125.14
 451  5042.771
 452  5073.624
 453  5145.277
 454  5182.279
 455  5125.895
 456  5134.337
 457  5276.608
 458  5221.879
 459  5248.02
 460  5253.616
 461  5271.374
 462  5258.738
 463  4992.894
 464  5172.739
 465  5114.291
 466  5228.773
 467  5106.422
 468  5325.854
 469  5450.436
 470  5525.393
 471  5659.549
 472  5752.783
 473  5741.223
 474  5535.367
 475  5520.905
 476  5347.774
 477  5250.007
 478  5239.272
 479  5334.721
 480  5158.879
 481  5186.695
 482  5436.96
 483  5714.59
 484  5550.981
 485  5517.06
 486  5520.607
 487  5492.489
 488  5291.547
 489  5328.007
 490  5427.923
 491  5244.725
 492  5012.758
 493  4946.948
 494  5014.488
 495  5094.082
 496  5126.454
 497  5220.755
 498  5016.941
 499  4893.029
 500  4952.361
 501  5020.519
 502  4832.914
 503  4558.312
 504  4770.821
 505  4954.306
 506  4927.296
 507  4834.75
 508  4922.928
 509  5140.586
 510  5340.405
 511  5589.922
 512  5532.902
 513  5314.808
 514  4963.359
 515  4949.94
 516  4967.802
 517  4775.119
 518  4933.838
 519  5116.377
 520  5242.148
 521  5451.752
 522  5873.028
 523  6056.804
 524  5876.525
 525  5672.132
 526  5812.713
 527  5595.698
 528  5393.405
 529  5027.9
 530  4970.601
 531  4700.356
 532  4651.97
 533  4887.195
 534  5083.406
 535  5273.328
 536  5346.454
 537  5706.214
 538  5779.965
 539  5695.141
 540  5579.27
 541  5325.647
 542  5147.26
 543  4844.112
 544  4812.031
 545  4711.039
 546  4788.104
 547  4661.006
 548  4858.983
 549  5121.729
 550  5246.523
 551  5278.706
 552  5297.427
 553  5153.515
 554  4881.629
 555  5023.146
 556  5045.998
 557  4992.083
 558  4961.201
 559  5301.084
 560  5231.799
 561  5202.72
 562  5232.685
 563  5444.753
 564  5340.98
 565  5184.03
 566  5065.307
 567  5022.946
 568  5058.879
 569  4833.635
 570  4908.51
 571  5026.525
 572  5378.379
 573  5559.783
 574  5722.039
 575  5817.88
 576  5942.051
 577  5910.281
 578  5738.104
 579  5314.311
 580  5206.574
 581  5168.492
 582  5163.606
 583  4957.088
 584  4871.396
 585  4998.813
 586  5158.717
 587  5470.196
 588  5734.117
 589  6027.521
 590  6018.135
 591  6157.706
 592  6373.815
 593  6406.487
 594  6188.804
 595  6054.399
 596  6147.957
 597  6019.548
 598  5990.907
 599  6148.482
 600  6340.174
 601  6441.145
 602  6319.982
 603  6217.281
 604  5913.539
 605  5595.467
 606  5437.015
 607  5278.097
 608  5078.764
 609  5168.442
 610  5440.761
 611  5370.703
 612  5347.273
 613  5437.022
 614  5514.224
 615  5456.267
 616  5409.792
 617  5535.206
 618  5516.052
 619  5279.513
 620  5120.674
 621  4922.489
 622  5073.509
 623  4967.965
 624  5088.951
 625  5169.472
 626  5330.188
 627  5472.773
 628  5681.406
 629  5758.322
 630  5636.305
 631  5528.711
 632  5351.234
 633  5124.432
 634  4750.692
 635  4671.687
 636  4795.21
 637  4889.915
 638  4939.136
 639  5133.131
 640  5260.295
 641  5433.559
 642  5509.675
 643  5662.144
 644  5577.167
 645  5477.42
 646  5511.667
 647  5384.861
 648  5330.94
 649  5157.887
 650  4849.973
 651  4904.777
 652  5136.833
 653  5281.18
 654  5269.567
 655  5447.991
 656  5404.916
 657  5342.453
 658  5299.793
 659  5370.946
 660  5289.021
 661  5274.601
 662  5309.051
 663  5227.464
 664  5113.99
 665  5344.736
 666  5491.641
 667  5739.823
 668  5781.47
 669  5918.529
 670  5893.982
 671  5761.053
 672  5743.493
 673  5739.213
 674  5583.583
 675  5250.883
 676  5251.564
 677  5362.152
 678  5420.818
 679  5502.167
 680  5595.502
 681  5729.138
 682  5746.525
 683  5949.685
 684  5798.562
 685  5646.474
 686  5722.413
 687  5674.267
 688  5544.25
 689  5372.482
 690  5265.084
 691  5193.484
 692  5114.345
 693  5259.43
 694  5453.639
 695  5658.122
 696  5765.767
 697  5694.691
 698  5712.449
 699  5412.481
 700  5320.248
 701  5235.434
 702  5158.383
 703  5189.558
 704  5085.729
 705  5281.58
 706  5533.56
 707  5779.505
 708  5914.146
 709  5832.816
 710  6015.443
 711  5956.049
 712  5775.682
 713  5561.83
 714  5424.951
 715  5397.691
 716  5481.28
 717  5752.197
 718  5700.572
 719  5717.762
 720  5752.521
 721  5930.516
 722  5858.622
 723  5688.937
 724  5637.62
 725  5408.759
 726  5485.748
 727  5519.48
 728  5575.329
 729  5302.762
 730  5129.797
 731  5285.688
 732  5561.354
 733  5784.193
 734  5802.061
 735  6065.313
 736  6031.296
 737  5994.724
 738  5895.307
 739  5700.426
 740  5330.471
 741  5197.91
 742  5223.894
 743  5313.86
 744  5227.93
 745  5390.091
 746  5691.508
 747  5848.262
 748  5875.93
 749  6039.059
 750  6108.736
 751  5961.295
 752  5819.433
 753  5530.802
 754  5295.76
 755  5120.289
 756  5032.732
 757  5151.422
 758  5089.383
 759  5300.318
 760  5552.668
 761  5807.698
 762  5847.477
 763  5721.048
 764  5767.431
 765  5586.563
 766  5298.158
 767  5378.607
 768  5308.173
 769  5387.827
 770  5295.092
 771  5578.608
 772  5658.668
 773  5849.027
 774  6004.838
 775  6131.843
 776  5981.322
 777  5842.868
 778  5840.142
 779  5812.146
 780  5577.818
 781  5281.411
 782  5384.739
 783  5425.871
 784  5321.253
 785  5348.271
 786  5559.918
 787  5701.214
 788  5814.047
 789  6035.505
 790  6106.205
 791  5886.464
 792  5830.204
 793  5840.66
 794  5599.355
 795  5326.449
 796  5250.846
 797  5500.155
 798  5450.723
 799  5546.285
 800  5696.262
 801  5824.989
 802  5803.103
 803  5835.81
 804  5848.748
 805  5592.506
 806  5249.833
 807  5069.557
 808  5141.297
 809  5154.766
 810  4893.699
 811  4997.825
 812  5017.648
 813  5460.239
 814  5716.708
 815  6053.826
 816  5978.116
 817  5760.467
 818  5737.958
 819  5829.1
 820  5669.977
 821  5504.98
 822  5389.279
 823  5348.63
 824  5136.709
 825  5190.965
 826  5412.412
 827  5626.833
 828  5712.469
 829  5755.884
 830  5940.657
 831  5789.783
 832  5539.53
 833  5574.197
 834  5644.03
 835  5469.678
 836  5175.674
 837  5255.938
 838  5472.229
 839  5726.1
 840  5790.365
 841  5692.133
 842  5519.814
 843  5541.421
 844  5658.296
 845  5622.509
 846  5240.257
 847  5096.802
 848  5181.979
 849  5145.517
 850  5273.453
 851  5447.945
 852  5667.377
 853  5840.053
 854  5900.523
 855  6063.578
 856  6017.567
 857  5859.393
 858  5734.21
 859  5628.558
 860  5598.645
 861  5387.815
 862  5367.171
 863  5440.205
 864  5348.29
 865  5295.79
 866  5462.548
 867  5645.102
 868  5802.763
 869  5749.741
 870  5895.613
 871  5807.945
 872  5594.798
 873  5537.933
 874  5469.631
 875  5369.609
 876  5264.25
 877  5506.274
 878  5525.221
 879  5538.16
 880  5545.047
 881  5761.625
 882  5711.517
 883  5651.718
 884  5625.498
 885  5562.538
 886  5407.173
 887  5425.299
 888  5628.062
 889  5897.777
 890  6024.81
 891  5987.995
 892  5966.875
 893  5803.386
 894  5820.976
 895  5791.995
 896  5814.93
 897  5629.02
 898  5473.802
 899  5393.256
 900  5227.197
 901  5224.37
 902  5177.292
 903  5483.434
 904  5562.912
 905  5679.923
 906  5742.81
 907  5793.383
 908  5916.88
 909  5948.359
 910  6000.796
 911  5773.626
 912  5577.371
 913  5584.439
 914  5631.356
 915  5514.176
 916  5265.616
 917  5198.815
 918  5075.328
 919  5230.804
 920  5535.99
 921  5829.961
 922  5674.475
 923  5528.687
 924  5648.169
 925  5760.806
 926  5517.703
 927  5265.666
 928  5012.595
 929  4880.194
 930  4721.077
 931  4893.474
 932  5179.119
 933  5225.499
 934  5165.445
 935  5261.501
 936  5400.186
 937  5412.005
 938  5353.553
 939  5429.531
 940  5449.915
 941  5433.424
 942  5337.21
 943  5455.433
 944  5447.042
 945  5451.682
 946  5661.352
 947  5796.651
 948  5719.977
 949  5567.466
 950  5845.997
 951  5887.01
 952  5564.003
 953  5265.68
 954  5279.694
 955  5371.414
 956  5390.089
 957  5695.216
 958  5864.764
 959  5871.433
 960  5848.967
 961  5872.812
 962  5899.953
 963  5794.911
 964  5755.656
 965  5588.823
 966  5380.652
 967  5131.754
 968  4989.564
 969  5188.865
 970  5330.191
 971  5456.13
 972  5629.042
 973  5680.803
 974  5722.276
 975  5673.363
 976  5829.402
 977  5816.145
 978  5458.973
 979  5322.211
 980  5211.748
 981  5105.544
 982  5205.016
 983  5345.024
 984  5526.456
 985  5704.023
 986  5835.146
 987  5783.368
 988  5602.108
 989  5606.581
 990  5709.918
 991  5675.676
 992  5674.692
 993  5613.356
 994  5621.903
 995  5622.349
 996  5476.375
 997  5708.366
 998  5836.224
 999  5991.849
1000  6014.147
1001  6258.413
1002  6394.113
1003  6131.509
1004  5874.726
1005  5697.476
1006  5584.87
1007  5504.415
1008  5398.067
1009  5270.137
1010  5123.811
1011  5304.624
1012  5514.525
1013  5599.28
1014  5736.25
1015  5826.456
1016  6052.24
1017  6021.083
1018  5807.198
1019  5647.508
1020  5585.19
1021  5526.308
1022  5327.758
1023  5339.283
