# Input file       =  1211599777.101234_cleaned.dat
# Candidate        =  PSR_0332+5434
# Telescope        =  AR
# Epoch_topo       =  58267.145788208727
# Epoch_bary       =  N/A
# T_sample         =  0.002
# Data Folded      =  7208960
# Data Avg         =  0.0471396376719111
# Data StdDev      =  1.00004250539094 
# Profile Bins     =  512
# Profile Avg      =  663.722690109997 
# Profile StdDev   =  118.664219448186 
# Reduced chi-sqr  =  1.434
# Prob(Noise)      <  3.85e-10   (~6.2 sigma)
# P_topo (ms)      =  714.51971391436   +/- 7.44e-05
# P'_topo (s/s)    =  -0                +/- 4e-11
# P''_topo (s/s^2) =  0                 +/- 1.8e-14
# P_bary (ms)      =  N/A
# P'_bary (s/s)    =  N/A
# P''_bary (s/s^2) =  N/A
# P_orb (s)        =  N/A
# asin(i)/c (s)    =  N/A
# eccentricity     =  N/A
# w (rad)          =  N/A
# T_peri           =  N/A
######################################################
   0  773.9955
   1  729.8362
   2  698.0683
   3  619.1011
   4  616.644
   5  680.5456
   6  627.204
   7  558.6958
   8  583.4377
   9  635.9374
  10  686.4771
  11  576.4501
  12  724.8502
  13  674.9738
  14  634.3292
  15  642.2172
  16  596.5852
  17  653.1359
  18  718.6519
  19  722.464
  20  672.8879
  21  612.7383
  22  588.4913
  23  679.2499
  24  799.7451
  25  782.4623
  26  701.0528
  27  701.7296
  28  583.8431
  29  692.4275
  30  659.1606
  31  627.3002
  32  634.0919
  33  668.1605
  34  714.6156
  35  741.0086
  36  837.2668
  37  646.2111
  38  577.9131
  39  607.142
  40  540.6337
  41  534.8984
  42  617.0511
  43  717.6989
  44  581.0894
  45  559.4329
  46  605.9625
  47  590.5777
  48  535.9888
  49  677.7471
  50  692.9056
  51  743.2187
  52  653.0333
  53  652.0635
  54  644.5155
  55  515.5714
  56  488.7411
  57  708.4196
  58  706.5465
  59  609.5255
  60  754.5543
  61  723.0761
  62  717.9285
  63  674.3696
  64  737.8726
  65  556.8609
  66  634.0338
  67  715.5045
  68  656.8038
  69  659.8903
  70  639.8244
  71  877.0146
  72  928.8949
  73  965.5162
  74  1125.754
  75  1314.761
  76  1344.898
  77  1149.716
  78  994.0952
  79  775.8703
  80  876.4842
  81  706.412
  82  600.0983
  83  700.2546
  84  647.0543
  85  676.5471
  86  621.3946
  87  697.8977
  88  656.0151
  89  653.5385
  90  822.7006
  91  793.5638
  92  766.821
  93  730.7793
  94  668.9692
  95  624.4706
  96  702.0226
  97  724.7682
  98  687.9639
  99  802.9308
 100  765.9299
 101  673.9974
 102  668.2875
 103  641.2895
 104  779.5074
 105  668.1161
 106  641.7121
 107  729.6242
 108  655.2598
 109  526.6546
 110  403.7764
 111  502.1531
 112  668.6989
 113  716.5231
 114  585.3953
 115  557.5227
 116  639.8533
 117  631.3779
 118  695.8333
 119  527.786
 120  531.9239
 121  583.1155
 122  573.09
 123  623.8021
 124  693.5123
 125  680.5667
 126  616.8745
 127  624.9166
 128  654.139
 129  565.8016
 130  421.8632
 131  505.636
 132  501.8131
 133  570.994
 134  650.4242
 135  501.9918
 136  548.1926
 137  492.4658
 138  439.5556
 139  497.9053
 140  547.7123
 141  667.4064
 142  680.3425
 143  531.5657
 144  457.8362
 145  516.8336
 146  583.9065
 147  471.8053
 148  451.2201
 149  666.3583
 150  711.736
 151  627.7358
 152  599.5261
 153  591.299
 154  455.1096
 155  476.8504
 156  652.6247
 157  731.4135
 158  699.578
 159  621.1302
 160  638.9282
 161  631.0634
 162  668.8533
 163  653.6314
 164  695.451
 165  600.8077
 166  686.4292
 167  556.4667
 168  521.5483
 169  580.2599
 170  547.6395
 171  501.3393
 172  491.5504
 173  519.6771
 174  618.9103
 175  610.9299
 176  565.4855
 177  603
 178  608.6258
 179  493.0343
 180  490.3976
 181  570.9709
 182  647.441
 183  659.2186
 184  659.6695
 185  595.5112
 186  536.34
 187  475.7424
 188  514.4539
 189  605.7183
 190  698.4841
 191  719.8292
 192  615.8517
 193  609.9472
 194  534.0389
 195  540.2565
 196  481.7534
 197  626.9605
 198  752.6054
 199  827.0795
 200  764.527
 201  660.3185
 202  611.7417
 203  548.1052
 204  517.8593
 205  597.8154
 206  592.2225
 207  699.3406
 208  617.5592
 209  609.4149
 210  643.5397
 211  668.9411
 212  591.6367
 213  659.6508
 214  652.1105
 215  620.4186
 216  689.7093
 217  698.8101
 218  596.246
 219  564.3914
 220  577.0166
 221  493.0377
 222  554.1465
 223  685.7976
 224  708.6123
 225  775.7893
 226  765.2717
 227  762.7602
 228  657.4919
 229  512.6014
 230  623.1439
 231  864.4132
 232  928.9277
 233  720.8618
 234  615.3347
 235  724.3435
 236  712.5381
 237  590.2411
 238  655.824
 239  690.7281
 240  736.7197
 241  776.6465
 242  807.4165
 243  844.3088
 244  628.3098
 245  625.4198
 246  631.6733
 247  716.2023
 248  791.563
 249  725.8071
 250  730.4626
 251  756.004
 252  730.2857
 253  701.2263
 254  727.298
 255  687.7847
 256  727.8378
 257  824.5029
 258  876.4671
 259  802.9155
 260  829.2701
 261  808.0478
 262  742.3764
 263  601.6969
 264  595.1285
 265  754.3069
 266  598.3075
 267  598.2007
 268  613.3665
 269  717.2639
 270  679.3113
 271  622.0121
 272  740.7138
 273  725.344
 274  711.1375
 275  746.8049
 276  670.9005
 277  649.3013
 278  700.7618
 279  582.2029
 280  543.3215
 281  580.6317
 282  569.5872
 283  551.0884
 284  540.4739
 285  726.7662
 286  625.199
 287  506.0796
 288  525.1046
 289  606.7446
 290  702.6912
 291  841.1655
 292  805.2601
 293  711.5327
 294  574.5302
 295  629.2966
 296  605.8282
 297  569.5109
 298  798.9387
 299  749.368
 300  780.3276
 301  656.5632
 302  577.7739
 303  584.2146
 304  601.8516
 305  626.8918
 306  631.7126
 307  742.8334
 308  800.0592
 309  803.4733
 310  659.6995
 311  662.712
 312  661.955
 313  656.2377
 314  637.0132
 315  680.5231
 316  828.1546
 317  714.6677
 318  579.6665
 319  677.5649
 320  631.4972
 321  663.5399
 322  695.2469
 323  811.5781
 324  695.5997
 325  693.2722
 326  653.6028
 327  704.029
 328  721.7473
 329  688.5336
 330  664.0709
 331  646.2347
 332  727.4821
 333  694.7371
 334  689.1589
 335  804.4252
 336  833.3967
 337  712.4783
 338  691.6646
 339  769.2462
 340  724.2463
 341  704.7482
 342  723.4029
 343  684.1819
 344  734.6667
 345  830.9648
 346  830.5393
 347  753.8849
 348  764.8459
 349  695.8027
 350  671.2753
 351  707.3548
 352  726.2791
 353  598.0479
 354  641.2505
 355  696.4831
 356  693.9997
 357  719.6753
 358  654.3621
 359  723.1199
 360  689.8905
 361  716.7964
 362  784.3226
 363  759.7669
 364  707.1495
 365  724.4299
 366  755.2947
 367  689.5872
 368  683.6612
 369  649.3145
 370  646.1329
 371  700.8804
 372  797.6046
 373  717.367
 374  600.0366
 375  670.2573
 376  666.7465
 377  623.0322
 378  584.2537
 379  660.8826
 380  813.446
 381  793.9077
 382  780.0895
 383  854.844
 384  664.6114
 385  586.1421
 386  588.5176
 387  558.0972
 388  692.7449
 389  635.52
 390  728.3415
 391  699.5043
 392  607.4236
 393  649.6561
 394  593.449
 395  642.9336
 396  652.688
 397  636.3223
 398  825.8745
 399  663.2468
 400  621.7437
 401  676.8193
 402  659.1259
 403  597.5267
 404  659.6147
 405  764.6972
 406  715.7437
 407  665.1067
 408  732.9387
 409  832.2597
 410  803.4369
 411  660.4541
 412  704.5104
 413  709.8357
 414  744.3709
 415  713.5321
 416  604.0151
 417  552.8589
 418  602.2219
 419  638.8911
 420  560.459
 421  696.7981
 422  731.264
 423  748.3118
 424  666.5935
 425  638.9841
 426  559.1204
 427  596.6932
 428  558.034
 429  553.4056
 430  613.5798
 431  748.4205
 432  707.146
 433  628.6559
 434  576.5952
 435  595.0952
 436  691.7642
 437  841.5153
 438  800.6237
 439  731.0495
 440  613.1076
 441  701.0405
 442  776.4481
 443  687.4554
 444  629.3364
 445  589.5884
 446  591.8613
 447  676.1727
 448  712.3101
 449  670.4789
 450  589.0599
 451  726.4355
 452  576.6451
 453  536.5827
 454  633.4315
 455  653.7166
 456  537.6868
 457  544.8763
 458  667.1069
 459  655.066
 460  537.1417
 461  542.5624
 462  577.6954
 463  554.8225
 464  649.1356
 465  605.1406
 466  605.4509
 467  539.9496
 468  521.0401
 469  517.7479
 470  571.8777
 471  680.8903
 472  830.9662
 473  685.7413
 474  725.5925
 475  691.1075
 476  675.3912
 477  598.7394
 478  635.1122
 479  659.1677
 480  659.6387
 481  608.1281
 482  524.1669
 483  568.7225
 484  542.0129
 485  549.314
 486  541.1908
 487  637.556
 488  768.0314
 489  726.3716
 490  683.5886
 491  780.8826
 492  655.9089
 493  628.1509
 494  587.8376
 495  455.5072
 496  555.5635
 497  672.7338
 498  696.513
 499  692.0094
 500  677.3418
 501  643.5855
 502  706.2418
 503  711.9288
 504  701.1608
 505  701.377
 506  661.5139
 507  747.2257
 508  652.5895
 509  706.8685
 510  739.7242
 511  693.7208
