# Input file       =  1211442149.106837_cleaned.dat
# Candidate        =  PSR_0332+5434
# Telescope        =  AR
# Epoch_topo       =  58265.321390125428
# Epoch_bary       =  N/A
# T_sample         =  0.002
# Data Folded      =  7340032
# Data Avg         =  0.203604507446081
# Data StdDev      =  4.9006948575797  
# Profile Bins     =  1024
# Profile Avg      =  1459.44347870694 
# Profile StdDev   =  414.912635026207 
# Reduced chi-sqr  =  1.116
# Prob(Noise)      <  0.00557   (~2.5 sigma)
# P_topo (ms)      =  714.521509493701  +/- 0.000716
# P'_topo (s/s)    =  -0                +/- 3.78e-10
# P''_topo (s/s^2) =  0                 +/- 1.67e-13
# P_bary (ms)      =  N/A
# P'_bary (s/s)    =  N/A
# P''_bary (s/s^2) =  N/A
# P_orb (s)        =  N/A
# asin(i)/c (s)    =  N/A
# eccentricity     =  N/A
# w (rad)          =  N/A
# T_peri           =  N/A
######################################################
   0  1619.751
   1  1562.532
   2  1531.438
   3  1550.302
   4  1617.744
   5  1645.368
   6  1654.861
   7  1541.88
   8  1418.238
   9  1462.507
  10  1647.488
  11  1809.186
  12  1800.368
  13  1707.938
  14  1586.825
  15  1544.039
  16  1474.937
  17  1527.811
  18  1408.327
  19  1323.854
  20  1292.564
  21  1346.012
  22  1250.175
  23  1265.359
  24  1396.304
  25  1613.829
  26  1564.61
  27  1525.884
  28  1559.166
  29  1604.546
  30  1650.224
  31  1616.331
  32  1633.275
  33  1508.265
  34  1530.852
  35  1460.438
  36  1458.943
  37  1444.445
  38  1529.787
  39  1680.203
  40  1547.918
  41  1478.937
  42  1373.475
  43  1345.498
  44  1303.198
  45  1304.743
  46  1284.975
  47  1365.4
  48  1388.11
  49  1350.364
  50  1354.957
  51  1349.327
  52  1415.831
  53  1395.85
  54  1256.687
  55  1077.197
  56  1172.768
  57  1399.682
  58  1470.242
  59  1377.006
  60  1392.243
  61  1410.69
  62  1483.191
  63  1367.166
  64  1437.115
  65  1541.862
  66  1578.432
  67  1472.854
  68  1348.05
  69  1319.394
  70  1259.397
  71  1215.579
  72  1238.396
  73  1435.743
  74  1578.219
  75  1549.723
  76  1437.516
  77  1550.608
  78  1657.154
  79  1736.25
  80  1711.604
  81  1677.259
  82  1594.763
  83  1445.387
  84  1535.495
  85  1577.952
  86  1669.581
  87  1671.755
  88  1714.631
  89  1642.324
  90  1651.153
  91  1725.683
  92  1814.085
  93  1860.496
  94  1811.235
  95  1710.256
  96  1643.854
  97  1540.945
  98  1422.82
  99  1372.463
 100  1515.242
 101  1619.583
 102  1445.276
 103  1350.999
 104  1258.934
 105  1315.865
 106  1284.24
 107  1394.871
 108  1501.713
 109  1532.084
 110  1466.603
 111  1427.894
 112  1246.74
 113  1238.767
 114  1242.173
 115  1461.86
 116  1454.157
 117  1430.583
 118  1349.75
 119  1137.021
 120  1072.038
 121  1163.298
 122  1268.197
 123  1316.691
 124  1256.276
 125  1297.999
 126  1283.802
 127  1310.396
 128  1227.794
 129  1157.973
 130  1185.916
 131  1256.127
 132  1218.788
 133  1261.747
 134  1252.961
 135  1248.91
 136  1229.902
 137  1368.025
 138  1402.283
 139  1337.665
 140  1233.18
 141  1238.092
 142  1186.089
 143  1145.399
 144  1059.287
 145  1130.432
 146  1132.683
 147  1209.128
 148  1184.819
 149  1190.67
 150  1083.441
 151  1019.837
 152  916.509
 153  990.0133
 154  986.9077
 155  1122.161
 156  1093.92
 157  1215.722
 158  1413.069
 159  1309.537
 160  1224.925
 161  1099.19
 162  1242.927
 163  1271.09
 164  1234.893
 165  1230.762
 166  1166.87
 167  1142.769
 168  1054.293
 169  1045.928
 170  1145.917
 171  1205.544
 172  1265.643
 173  1360.615
 174  1338.907
 175  1170.066
 176  1113.341
 177  1136.682
 178  1151.448
 179  1133.87
 180  1131.988
 181  1169.938
 182  1202.107
 183  1247.324
 184  1354.166
 185  1323.292
 186  1413.119
 187  1448.303
 188  1446.487
 189  1278.17
 190  1228.359
 191  1181.598
 192  1165.729
 193  1085.577
 194  1121.55
 195  1242.213
 196  1253.572
 197  1250.012
 198  1153.973
 199  1132.039
 200  1124.371
 201  1203.551
 202  1199.09
 203  1258.536
 204  1229.683
 205  1206.423
 206  1146.75
 207  1116.322
 208  1154.241
 209  1309.355
 210  1373.68
 211  1349.544
 212  1287.259
 213  1211.33
 214  1300.204
 215  1333.687
 216  1339.284
 217  1075.356
 218  1062.09
 219  1113.424
 220  1193.881
 221  1204.47
 222  1221.414
 223  1300.392
 224  1305.627
 225  1259.113
 226  1066.666
 227  925.848
 228  848.1706
 229  953.3109
 230  1149.031
 231  1199.349
 232  1211.57
 233  1188.47
 234  1265.298
 235  1207.509
 236  1142.141
 237  1069.244
 238  1230.275
 239  1317.244
 240  1359.248
 241  1359.695
 242  1378.074
 243  1418.223
 244  1275.82
 245  1147.834
 246  1110.739
 247  1115.561
 248  1145.032
 249  1129.322
 250  1225.73
 251  1223.996
 252  1168.243
 253  1016.75
 254  1071.934
 255  1105.182
 256  1137.353
 257  1178.142
 258  1296.295
 259  1297.836
 260  1272.483
 261  1283.829
 262  1314.127
 263  1360.104
 264  1311.207
 265  1316.633
 266  1366.213
 267  1436.243
 268  1403.329
 269  1333.827
 270  1254.408
 271  1291.291
 272  1248.013
 273  1221.866
 274  1194.465
 275  1193.901
 276  1210.312
 277  1168.24
 278  1170.548
 279  1093.397
 280  1073.335
 281  1089.759
 282  1259.072
 283  1222.553
 284  1171.009
 285  1051.717
 286  1237.632
 287  1313.786
 288  1341.167
 289  1331.767
 290  1393.03
 291  1450.577
 292  1278.431
 293  1206.736
 294  1223.738
 295  1359.088
 296  1387.679
 297  1399.827
 298  1348.755
 299  1326.38
 300  1355.208
 301  1436.339
 302  1388.344
 303  1352.232
 304  1420.308
 305  1305.369
 306  1272.988
 307  1188.421
 308  1340.895
 309  1411.327
 310  1308.595
 311  1313.903
 312  1267.526
 313  1200.506
 314  1134.122
 315  1236.342
 316  1352.585
 317  1385.057
 318  1271.084
 319  1213.685
 320  1258.351
 321  1302.776
 322  1343.753
 323  1335.738
 324  1286.955
 325  1273.385
 326  1262.519
 327  1314.947
 328  1330.95
 329  1458.321
 330  1578.758
 331  1463.546
 332  1327.811
 333  1194.94
 334  1282.284
 335  1371.29
 336  1511.123
 337  1493.457
 338  1447.008
 339  1443.202
 340  1520.097
 341  1533.106
 342  1567.612
 343  1593.182
 344  1614.421
 345  1503.633
 346  1469.686
 347  1473.158
 348  1491.918
 349  1444.081
 350  1480.774
 351  1467.912
 352  1474.225
 353  1412.105
 354  1434.303
 355  1306.018
 356  1215.32
 357  1130.398
 358  1207.434
 359  1388.855
 360  1356.636
 361  1382.486
 362  1234.336
 363  1277.79
 364  1281.893
 365  1401.636
 366  1528.678
 367  1487.191
 368  1393.297
 369  1323.695
 370  1334.176
 371  1317.837
 372  1188.631
 373  1065.829
 374  1097.664
 375  1170.447
 376  1176.565
 377  1127.615
 378  1147.746
 379  1248.988
 380  1345.117
 381  1180.866
 382  1036.693
 383  1109.56
 384  1304.839
 385  1277.896
 386  1048.062
 387  1114.328
 388  1118.155
 389  1060.493
 390  1063.723
 391  1026.192
 392  1130.271
 393  1178.59
 394  1371.517
 395  1418.558
 396  1345.817
 397  1324.348
 398  1192.734
 399  1172.583
 400  1102.556
 401  1124.576
 402  1240.227
 403  1225.489
 404  1286.934
 405  1285.735
 406  1275.498
 407  1151.623
 408  1073.577
 409  1055.73
 410  1131.1
 411  1219.55
 412  1220.608
 413  1080.985
 414  1008.237
 415  1008.709
 416  1090.11
 417  991.48
 418  980.0551
 419  1002.177
 420  1109.602
 421  1126.724
 422  1151.676
 423  1145.89
 424  1200.12
 425  1229.093
 426  1343.98
 427  1224.109
 428  1127.153
 429  1091.456
 430  1181.883
 431  1267.499
 432  1192.924
 433  1192.549
 434  1215.636
 435  1212.401
 436  1087.402
 437  1021.379
 438  1123.809
 439  1201.048
 440  1184.195
 441  1170.765
 442  1181.227
 443  1096.099
 444  1111.327
 445  1232.727
 446  1286.961
 447  1277.359
 448  1273.456
 449  1387.564
 450  1352.287
 451  1235.797
 452  1281.432
 453  1331.15
 454  1307.904
 455  1106.769
 456  1033.114
 457  1083.478
 458  1144.742
 459  1156.849
 460  1162.011
 461  1123.387
 462  1102.72
 463  1016.465
 464  1043.726
 465  1002.035
 466  1167.931
 467  1248.735
 468  1467.297
 469  1479.637
 470  1396.417
 471  1168.04
 472  1106.63
 473  1108.583
 474  1070.996
 475  1016.867
 476  1049.309
 477  1125.999
 478  1153.362
 479  1137.862
 480  1182.183
 481  1262.188
 482  1198.724
 483  1076.182
 484  1073.278
 485  1173.928
 486  1172.93
 487  1178.695
 488  1223.827
 489  1165.475
 490  1283.346
 491  1168.348
 492  1310.292
 493  1370.118
 494  1411.861
 495  1366.593
 496  1350.299
 497  1388.422
 498  1239.773
 499  1205.654
 500  1385.212
 501  1484.913
 502  1423.978
 503  1238.301
 504  1137.992
 505  1226.505
 506  1388.535
 507  1550.286
 508  1625.062
 509  1712.036
 510  1744.169
 511  1557.661
 512  1389.718
 513  1358.368
 514  1526.559
 515  1565.412
 516  1491.738
 517  1372.945
 518  1323.005
 519  1260.069
 520  1278.623
 521  1277.817
 522  1356.182
 523  1393.716
 524  1490.561
 525  1548.834
 526  1628.793
 527  1693.996
 528  1812.151
 529  1797.535
 530  1715.365
 531  1712.239
 532  1788.749
 533  1742.511
 534  1644.306
 535  1546.874
 536  1595.533
 537  1593.791
 538  1555.684
 539  1431.091
 540  1356.266
 541  1364.923
 542  1525.309
 543  1556.748
 544  1565.825
 545  1508.491
 546  1568.119
 547  1666.792
 548  1609.369
 549  1513.946
 550  1494.853
 551  1543.819
 552  1564.567
 553  1524.368
 554  1443.1
 555  1454.354
 556  1381.139
 557  1355.807
 558  1337.632
 559  1396.482
 560  1446.733
 561  1532.583
 562  1542.501
 563  1600.585
 564  1551.406
 565  1528.151
 566  1536.943
 567  1471.428
 568  1381.682
 569  1350.415
 570  1414.44
 571  1492.991
 572  1428.728
 573  1431.798
 574  1399.623
 575  1530.261
 576  1566.091
 577  1493.684
 578  1418.963
 579  1372.563
 580  1415.2
 581  1410.953
 582  1584.028
 583  1652.03
 584  1718.67
 585  1595.632
 586  1756.215
 587  1790.651
 588  1775.767
 589  1751.411
 590  1989.465
 591  2047.809
 592  1938.303
 593  2028.522
 594  2144.845
 595  2261.413
 596  2225.449
 597  2324.81
 598  2388.597
 599  2362.106
 600  2323.276
 601  2340.208
 602  2177.152
 603  1985.338
 604  1758.838
 605  1699.487
 606  1592.498
 607  1470.898
 608  1473.195
 609  1496.997
 610  1471.048
 611  1396.62
 612  1429.924
 613  1449.749
 614  1567.139
 615  1628.125
 616  1610.232
 617  1609.435
 618  1637.697
 619  1641.28
 620  1644.719
 621  1554.756
 622  1533.486
 623  1441.543
 624  1311.121
 625  1325.933
 626  1335.121
 627  1506.889
 628  1488.776
 629  1499.765
 630  1601.864
 631  1712.442
 632  1717.796
 633  1611.4
 634  1384.315
 635  1151.54
 636  1165.059
 637  1191.578
 638  1313.999
 639  1441.774
 640  1562.279
 641  1647.032
 642  1530.15
 643  1628.461
 644  1656.664
 645  1686.432
 646  1529.779
 647  1570.909
 648  1594.374
 649  1571.673
 650  1478.556
 651  1512.151
 652  1543.829
 653  1601.619
 654  1711.064
 655  1831.075
 656  1824.285
 657  1745.111
 658  1767.801
 659  1751.672
 660  1620.452
 661  1507.003
 662  1446.612
 663  1549.448
 664  1599.664
 665  1739.964
 666  1752.795
 667  1760.44
 668  1853.401
 669  1857.629
 670  1918.122
 671  1761.378
 672  1721.805
 673  1559.091
 674  1588.259
 675  1667.904
 676  1812.828
 677  1781.868
 678  1704.308
 679  1645.839
 680  1740.456
 681  1781.916
 682  1764.147
 683  1713.987
 684  1778.286
 685  1752.462
 686  1899.174
 687  1903.617
 688  1984.131
 689  1945.28
 690  1850.318
 691  1692.399
 692  1665.754
 693  1838.813
 694  1949.932
 695  1920.257
 696  1804.37
 697  1788.588
 698  1756.87
 699  1778.804
 700  1799.184
 701  1865.682
 702  1888.334
 703  1799.098
 704  1732.655
 705  1605.502
 706  1654.758
 707  1795.97
 708  1871.505
 709  1792.005
 710  1731.375
 711  1823.294
 712  1734.455
 713  1725.067
 714  1634.192
 715  1663.293
 716  1768.929
 717  1654.231
 718  1583.905
 719  1576.775
 720  1717.206
 721  1638.659
 722  1382.478
 723  1379.382
 724  1559.228
 725  1586.812
 726  1484.127
 727  1279.566
 728  1334.1
 729  1297.839
 730  1392.968
 731  1367.117
 732  1247.998
 733  1264.416
 734  1355.666
 735  1490.271
 736  1480.105
 737  1390.385
 738  1451.431
 739  1424.312
 740  1443.679
 741  1471.889
 742  1459.773
 743  1462.995
 744  1366.282
 745  1352.24
 746  1290.042
 747  1272.943
 748  1319.716
 749  1274.029
 750  1330.785
 751  1340.706
 752  1479.646
 753  1558.031
 754  1577.073
 755  1423.805
 756  1402.686
 757  1348.727
 758  1334.91
 759  1411.022
 760  1514.928
 761  1404.182
 762  1394.167
 763  1479.493
 764  1665.968
 765  1591.832
 766  1378.607
 767  1298.145
 768  1310.513
 769  1388.965
 770  1481.442
 771  1589.425
 772  1708.683
 773  1719.872
 774  1730.686
 775  1541.473
 776  1535.875
 777  1565.755
 778  1668.173
 779  1862.913
 780  1895.497
 781  1804.985
 782  1602.683
 783  1637.285
 784  1702.344
 785  1679.026
 786  1652.835
 787  1558.871
 788  1653.32
 789  1578.172
 790  1603.112
 791  1589.442
 792  1725.299
 793  1974.344
 794  2004.57
 795  1909.029
 796  1880.616
 797  1882.664
 798  1803.623
 799  1794.278
 800  1713.456
 801  1774.296
 802  1748.215
 803  1825.522
 804  1703.091
 805  1654.94
 806  1721.064
 807  1704.068
 808  1729.911
 809  1694.062
 810  1781.53
 811  1723.204
 812  1709.693
 813  1715.974
 814  1726.574
 815  1618.178
 816  1542.505
 817  1439.821
 818  1372.477
 819  1437.195
 820  1533.435
 821  1595.587
 822  1573.699
 823  1571.292
 824  1629.945
 825  1539.937
 826  1490.742
 827  1382.393
 828  1496.077
 829  1528.444
 830  1525.326
 831  1450.883
 832  1543.735
 833  1650.426
 834  1731.958
 835  1716.204
 836  1627.794
 837  1620.104
 838  1625.039
 839  1703.531
 840  1744.638
 841  1730.906
 842  1647.667
 843  1556.692
 844  1485.931
 845  1308.493
 846  1451.609
 847  1510.733
 848  1664.099
 849  1578.188
 850  1635.281
 851  1663.887
 852  1688.871
 853  1678.93
 854  1674.086
 855  1676.132
 856  1664.424
 857  1717.502
 858  1711.511
 859  1602.932
 860  1493.993
 861  1495.066
 862  1586.724
 863  1753.354
 864  1793.725
 865  1806.004
 866  1750.628
 867  1699.746
 868  1800.793
 869  1781.113
 870  1626.129
 871  1453.862
 872  1482.77
 873  1635.467
 874  1750.488
 875  1715.11
 876  1678.568
 877  1606.252
 878  1614.594
 879  1659.531
 880  1668.919
 881  1686.9
 882  1684.86
 883  1735.583
 884  1662.316
 885  1592.799
 886  1612.006
 887  1694.828
 888  1662.414
 889  1698.387
 890  1765.683
 891  1718.261
 892  1685.966
 893  1715.456
 894  1816.935
 895  1659.749
 896  1628.888
 897  1599.874
 898  1746.292
 899  1703.358
 900  1637.324
 901  1567.509
 902  1542.639
 903  1538.512
 904  1545.094
 905  1552.361
 906  1549.026
 907  1422.708
 908  1364.175
 909  1353.765
 910  1415.73
 911  1373.674
 912  1360.901
 913  1446.161
 914  1504.064
 915  1484.929
 916  1566.871
 917  1682.996
 918  1747.573
 919  1663.096
 920  1508.127
 921  1528.486
 922  1531.115
 923  1743.671
 924  1746.409
 925  1581.108
 926  1448.877
 927  1512.459
 928  1442.067
 929  1352.313
 930  1321.995
 931  1426.931
 932  1460.325
 933  1493.804
 934  1356.633
 935  1397.273
 936  1437.448
 937  1598.062
 938  1513.281
 939  1413.057
 940  1441.778
 941  1454.856
 942  1580.667
 943  1582.741
 944  1653.204
 945  1652.859
 946  1680.937
 947  1745.758
 948  1774.706
 949  1786.944
 950  1707.94
 951  1803.231
 952  1828.792
 953  1833.395
 954  1786.415
 955  1773.234
 956  1806.432
 957  1778.419
 958  1721.689
 959  1722.109
 960  1930.925
 961  2107.214
 962  2102.111
 963  2014.058
 964  1891.55
 965  1820.525
 966  1702.144
 967  1757.596
 968  1814.158
 969  1942.165
 970  1917.21
 971  1945.584
 972  1886.442
 973  1861.595
 974  1863.855
 975  1827.547
 976  1612.915
 977  1493.945
 978  1513.41
 979  1623.093
 980  1587.381
 981  1565.046
 982  1747.761
 983  1881.293
 984  1807.507
 985  1761.915
 986  1675.055
 987  1772.676
 988  1792.548
 989  1718.6
 990  1581.179
 991  1598.855
 992  1614.458
 993  1639.86
 994  1547.386
 995  1491.751
 996  1539.362
 997  1601.563
 998  1727.469
 999  1675.828
1000  1657.819
1001  1750.972
1002  1838.533
1003  1686.94
1004  1581.12
1005  1498.771
1006  1553.397
1007  1512.083
1008  1558.221
1009  1665.983
1010  1666.797
1011  1657.773
1012  1505.641
1013  1584.887
1014  1569.589
1015  1766.355
1016  1795.953
1017  1709.603
1018  1561.776
1019  1458.485
1020  1449.791
1021  1559.412
1022  1671.522
1023  1721.162
