# Input file       =  1211599777.101234_cleaned.dat
# Candidate        =  PSR_0332+5434
# Telescope        =  AR
# Epoch_topo       =  58267.145788208727
# Epoch_bary       =  N/A
# T_sample         =  0.002
# Data Folded      =  7208960
# Data Avg         =  0.254971231049223
# Data StdDev      =  5.03433572331578 
# Profile Bins     =  1024
# Profile Avg      =  1794.99351813218 
# Profile StdDev   =  422.404468101814 
# Reduced chi-sqr  =  1.359
# Prob(Noise)      <  1.24e-13   (~7.3 sigma)
# P_topo (ms)      =  714.51971391436   +/- 2.64e-05
# P'_topo (s/s)    =  -0                +/- 1.42e-11
# P''_topo (s/s^2) =  0                 +/- 6.38e-15
# P_bary (ms)      =  N/A
# P'_bary (s/s)    =  N/A
# P''_bary (s/s^2) =  N/A
# P_orb (s)        =  N/A
# asin(i)/c (s)    =  N/A
# eccentricity     =  N/A
# w (rad)          =  N/A
# T_peri           =  N/A
######################################################
   0  1794.696
   1  1938.199
   2  2063.433
   3  2265.624
   4  2317.528
   5  2194.4
   6  2148.973
   7  2034.024
   8  1849.406
   9  1854.29
  10  1835.775
  11  1687.71
  12  1479.494
  13  1422.951
  14  1457.789
  15  1363.761
  16  1287.668
  17  1542.759
  18  1860.034
  19  2134.706
  20  2014.971
  21  2002.147
  22  2047.151
  23  2060.061
  24  2021.203
  25  1823.879
  26  1723.729
  27  1619.999
  28  1541.435
  29  1451.259
  30  1362.432
  31  1281.413
  32  1251.784
  33  1375.413
  34  1536.446
  35  1759.772
  36  1983.741
  37  2139.327
  38  2157.686
  39  2150.492
  40  2189.241
  41  2159.475
  42  1997.413
  43  1841.293
  44  1729.759
  45  1700.785
  46  1559.079
  47  1566.81
  48  1465.814
  49  1619.297
  50  1740.544
  51  1909.437
  52  1962.734
  53  2060.205
  54  2179.807
  55  2232.803
  56  2121.686
  57  1937.369
  58  1824.893
  59  1653.128
  60  1701.976
  61  1882.143
  62  1728.801
  63  1540.053
  64  1415.851
  65  1592.366
  66  1600.23
  67  1666.221
  68  1951.467
  69  2309.159
  70  2158.375
  71  1997.179
  72  1907.661
  73  1923.157
  74  1838.183
  75  1854.027
  76  1934.836
  77  2006.193
  78  1960.739
  79  1946.811
  80  1929.024
  81  1752.545
  82  1723.312
  83  1771.659
  84  1968.592
  85  1954.119
  86  1883.113
  87  1974.144
  88  1950.185
  89  1772.003
  90  1679.338
  91  1831.681
  92  2064.522
  93  2126.138
  94  2195.679
  95  2224.301
  96  1957.291
  97  1799.108
  98  1713.253
  99  1819.161
 100  1729.617
 101  1957.202
 102  2132.713
 103  2094.148
 104  1839.169
 105  1900.089
 106  1912.565
 107  1904.539
 108  1779.181
 109  1880.772
 110  1960.195
 111  1830.681
 112  1799.07
 113  1750.538
 114  1867.086
 115  1934.026
 116  2068.089
 117  2240.414
 118  2316.046
 119  2349.455
 120  2201.394
 121  2034.865
 122  1881.798
 123  1750.568
 124  1629.992
 125  1609.5
 126  1789.797
 127  1783.334
 128  1733.888
 129  1655.199
 130  1743.611
 131  1703.879
 132  1910.275
 133  2205.949
 134  2349.314
 135  2187.055
 136  2071.813
 137  2048.211
 138  1921.339
 139  1836.085
 140  1827.958
 141  1842.01
 142  1890.669
 143  1782.164
 144  1916.746
 145  1857.548
 146  1878.976
 147  1962.683
 148  1969.918
 149  2020.211
 150  1869.895
 151  2132.688
 152  2277.474
 153  2304.315
 154  2134.968
 155  2046.656
 156  1982.751
 157  1768.273
 158  1769.179
 159  1628.167
 160  1554.991
 161  1444.818
 162  1511.006
 163  1516.505
 164  1528.253
 165  1795.818
 166  2159.5
 167  2345.896
 168  2359.766
 169  2264.892
 170  2092.219
 171  1928.368
 172  1753.054
 173  1735.484
 174  1697.075
 175  1639.339
 176  1572.038
 177  1464.762
 178  1418.424
 179  1384.712
 180  1286.346
 181  1321.546
 182  1543.776
 183  1867.28
 184  2156.996
 185  2210.943
 186  2199.846
 187  2073.242
 188  2159.84
 189  2036.264
 190  1942.892
 191  1752.195
 192  1637.34
 193  1489.212
 194  1374.7
 195  1213.192
 196  1104.937
 197  1195.472
 198  1402.216
 199  1637.36
 200  1784.204
 201  1933.399
 202  2072.716
 203  2212.053
 204  2083.126
 205  1895.986
 206  1739.815
 207  1826.313
 208  1832.72
 209  1857.815
 210  1688.891
 211  1574.437
 212  1505.215
 213  1452.329
 214  1550.841
 215  1595.523
 216  1743.781
 217  1920.75
 218  2140.528
 219  2200.025
 220  2166.298
 221  2082.553
 222  1912.965
 223  1819.238
 224  1798.781
 225  1865.777
 226  1808.75
 227  1667.876
 228  1573.735
 229  1419.042
 230  1454.442
 231  1544.888
 232  1802.035
 233  1811.839
 234  1902.567
 235  1972.806
 236  2082.73
 237  2037.107
 238  1991.038
 239  2081.414
 240  2160.353
 241  2136.834
 242  2107.353
 243  2066.318
 244  1986.899
 245  1825.194
 246  1883.243
 247  1881.199
 248  1888.36
 249  1890.143
 250  2106.206
 251  2194.519
 252  2054.584
 253  1904.929
 254  1759.166
 255  1673.575
 256  1531.435
 257  1662.894
 258  1925.775
 259  1859.596
 260  1790.159
 261  1760.972
 262  1801.712
 263  1595.109
 264  1515.509
 265  1785.506
 266  2077.881
 267  2075.772
 268  2032.455
 269  2133.353
 270  1963.52
 271  1895.079
 272  1889.099
 273  2026.118
 274  1892.583
 275  1733.738
 276  1754.036
 277  1719.297
 278  1629.521
 279  1587.95
 280  1605.065
 281  1782.131
 282  1920.84
 283  2002.137
 284  2172.203
 285  2296.163
 286  2277.358
 287  2005.988
 288  1766.198
 289  1684.34
 290  1755.619
 291  1866.383
 292  1851.529
 293  1742.045
 294  1708.07
 295  1780.006
 296  1875.89
 297  2051.844
 298  2101.25
 299  2274.182
 300  2307.853
 301  2264.913
 302  2066.554
 303  1932.301
 304  1925.219
 305  1944.331
 306  1979.681
 307  1975.22
 308  1872.353
 309  1801.83
 310  1839.221
 311  1707.756
 312  1611.858
 313  1542.544
 314  1782.176
 315  2012.701
 316  2195.618
 317  2174.556
 318  2164.364
 319  2041.898
 320  1988.722
 321  1855.83
 322  1647.369
 323  1573.436
 324  1579.979
 325  1681.464
 326  1515.421
 327  1403.402
 328  1264.463
 329  1407.362
 330  1599.582
 331  2034.985
 332  2178.09
 333  2248.538
 334  2186.29
 335  1995.383
 336  1869.701
 337  1711.443
 338  1791.953
 339  1781.289
 340  1675.576
 341  1676.729
 342  1589.819
 343  1430.131
 344  1279.441
 345  1357.765
 346  1456.002
 347  1408.716
 348  1445.329
 349  1806.037
 350  2019.042
 351  2061.488
 352  1980.348
 353  1928.406
 354  1848.591
 355  1724.002
 356  1672.685
 357  1516.4
 358  1372.248
 359  1233.214
 360  1199.997
 361  1109.691
 362  1153.264
 363  1407.211
 364  1653.665
 365  1836.313
 366  2056.452
 367  2137.609
 368  2097.466
 369  1980.398
 370  1959.909
 371  1898.485
 372  1707.645
 373  1722.765
 374  1822.118
 375  1784.157
 376  1671.331
 377  1400.13
 378  1309.126
 379  1278.85
 380  1449.778
 381  1661.152
 382  1807.026
 383  1940.414
 384  1967.616
 385  1839.142
 386  1653.895
 387  1548.961
 388  1664.706
 389  1682.35
 390  1624.893
 391  1598.412
 392  1456.263
 393  1300.353
 394  1204.884
 395  1205.575
 396  1265.739
 397  1331.045
 398  1649.525
 399  1987.629
 400  2068.301
 401  1946.929
 402  1854.951
 403  1895.246
 404  1966.931
 405  1857.317
 406  1931.273
 407  1821.146
 408  1736.611
 409  1714.01
 410  1667.818
 411  1574.386
 412  1318.907
 413  1251.97
 414  1518.358
 415  1679.415
 416  1819.012
 417  1881.189
 418  2090.653
 419  1916.651
 420  1783.054
 421  1727.49
 422  1866.277
 423  1720.974
 424  1714.755
 425  1799.793
 426  1733.516
 427  1609.609
 428  1715.409
 429  1821.101
 430  1795.556
 431  1793.904
 432  2008.473
 433  2164.475
 434  1993.734
 435  1825.351
 436  1777.562
 437  1844.613
 438  1759.173
 439  1844.857
 440  1900.646
 441  1837.94
 442  1789.616
 443  1822.398
 444  1830.022
 445  1663.844
 446  1788.649
 447  2076.035
 448  2165.962
 449  2108.862
 450  1898.187
 451  1999.645
 452  1783.601
 453  1617.3
 454  1504.87
 455  1590.821
 456  1610.204
 457  1676.697
 458  1793.814
 459  1665.929
 460  1452.611
 461  1429.482
 462  1647.484
 463  1741.952
 464  1829.054
 465  1871.917
 466  2045.845
 467  1948.907
 468  1817.152
 469  1613.529
 470  1617.865
 471  1860.143
 472  1936.437
 473  1819.816
 474  1657.448
 475  1567.758
 476  1652.276
 477  1508.483
 478  1526.291
 479  1642.968
 480  1870.679
 481  2166.143
 482  2304.094
 483  2328.497
 484  2124.837
 485  1912.17
 486  1839.352
 487  1705.281
 488  1606.808
 489  1470.334
 490  1540.352
 491  1446.726
 492  1405.424
 493  1474.979
 494  1706.397
 495  1927.094
 496  1995.432
 497  2273.485
 498  2282.542
 499  2144.886
 500  2089.88
 501  2054.708
 502  1929.443
 503  1703.189
 504  1722.339
 505  1785.006
 506  1741.912
 507  1782.885
 508  1767.113
 509  1742.866
 510  1478.796
 511  1545.687
 512  1709.316
 513  1789.087
 514  1916.26
 515  2068.141
 516  2234.563
 517  2087.395
 518  2031.178
 519  2032.322
 520  1841.913
 521  1623.699
 522  1549.082
 523  1574.266
 524  1529.498
 525  1371.733
 526  1371.947
 527  1423.027
 528  1397.307
 529  1507.649
 530  1822.963
 531  2014.12
 532  2071.5
 533  2043.046
 534  1905.497
 535  1738.404
 536  1497.537
 537  1559.392
 538  1585.796
 539  1664.781
 540  1538.156
 541  1668.253
 542  1518.779
 543  1449.072
 544  1442.266
 545  1719.909
 546  1894.604
 547  1948.229
 548  2055.344
 549  2119.559
 550  1982.457
 551  1919.282
 552  1842.628
 553  1819.646
 554  1724.005
 555  1828.501
 556  1728.276
 557  1571.569
 558  1326.662
 559  1263.122
 560  1312.844
 561  1494.833
 562  1698.391
 563  1723.868
 564  1652.223
 565  1747.379
 566  1960.869
 567  2143.255
 568  2023.275
 569  2055.948
 570  2156.901
 571  2113.365
 572  1994.081
 573  1849.341
 574  1878.424
 575  1704.151
 576  1614.995
 577  1487.461
 578  1541.631
 579  1529.794
 580  1805.875
 581  2102.784
 582  2102.417
 583  1868.92
 584  1924.725
 585  2023.233
 586  1877.424
 587  1790.305
 588  2084.288
 589  2314.573
 590  2168.078
 591  2079.189
 592  2091.883
 593  1925.104
 594  1897.481
 595  2190.25
 596  2629.341
 597  2714.958
 598  2796.591
 599  3040.82
 600  2976.569
 601  2611.862
 602  2436.011
 603  2428.428
 604  2239.848
 605  1957.264
 606  2110.487
 607  2188.797
 608  1918.721
 609  1847.946
 610  1827.221
 611  1924.057
 612  1779.272
 613  2076.747
 614  2178.655
 615  1988.571
 616  1867.448
 617  1886.525
 618  1781.183
 619  1633.613
 620  1666.841
 621  1850.661
 622  1898.23
 623  1752.562
 624  1597.996
 625  1656.058
 626  1829.152
 627  1964.523
 628  2036.963
 629  2100.989
 630  2182.13
 631  2220.688
 632  2079.872
 633  1905.486
 634  1726.458
 635  1655.515
 636  1665.187
 637  1596.818
 638  1670.998
 639  1779.934
 640  1832.039
 641  1753.043
 642  1653.264
 643  1690.416
 644  2011.727
 645  2198.947
 646  2362.044
 647  2138.238
 648  2119.86
 649  1989.393
 650  1966.11
 651  1744.861
 652  1638.018
 653  1685.866
 654  1811.48
 655  1849.794
 656  1780.738
 657  1611.343
 658  1495.762
 659  1565.072
 660  1922.817
 661  2097.777
 662  2122.051
 663  2059.224
 664  2223.56
 665  2037.044
 666  1728.461
 667  1463.916
 668  1517.792
 669  1545.141
 670  1623.852
 671  1787.089
 672  1898.038
 673  1781.817
 674  1682.578
 675  1522.13
 676  1464.429
 677  1366.91
 678  1679.1
 679  1929.719
 680  1972.691
 681  1949.573
 682  2007.797
 683  2004.36
 684  1711.875
 685  1471.691
 686  1490.778
 687  1482.71
 688  1441.78
 689  1304.513
 690  1234.782
 691  1213.964
 692  1243.57
 693  1384.778
 694  1537.064
 695  1855.887
 696  2072.021
 697  2183.724
 698  1965.664
 699  1861.033
 700  1778.67
 701  1812.9
 702  1615.735
 703  1537.126
 704  1552.735
 705  1516.701
 706  1356.248
 707  1218.432
 708  1272.56
 709  1405.08
 710  1467.94
 711  1583.417
 712  1637.967
 713  1888.193
 714  2017.826
 715  2126.064
 716  1743.276
 717  1553.041
 718  1596.897
 719  1667.858
 720  1674.581
 721  1441.75
 722  1364.925
 723  1206.559
 724  1230.139
 725  1132.304
 726  1098.563
 727  1139.611
 728  1391.361
 729  1779.2
 730  1891.131
 731  1788.45
 732  1622.203
 733  1678.208
 734  1752.36
 735  1562.521
 736  1560.792
 737  1721.288
 738  1813.94
 739  1695.966
 740  1467.494
 741  1311.9
 742  1079.557
 743  1214.515
 744  1585.113
 745  1760.622
 746  1803.287
 747  1892.621
 748  2023.207
 749  1783.103
 750  1584.238
 751  1668.253
 752  1858
 753  1651.249
 754  1437.639
 755  1460.212
 756  1357.456
 757  1226.775
 758  1241.014
 759  1580.044
 760  1692.089
 761  1832.9
 762  2035.35
 763  2080.735
 764  1897.755
 765  1863.315
 766  2007.844
 767  1800.536
 768  1613.896
 769  1652.334
 770  1837.073
 771  1753.162
 772  1629.026
 773  1711.765
 774  1768.845
 775  1741.276
 776  1725.389
 777  1757.889
 778  1925.242
 779  2028.023
 780  1929.074
 781  1761.822
 782  1475.512
 783  1495.646
 784  1426.436
 785  1608.103
 786  1560.394
 787  1570.374
 788  1585.02
 789  1524.422
 790  1467.286
 791  1392.07
 792  1466.92
 793  1654.085
 794  1826.219
 795  1874.474
 796  1946.676
 797  1833.117
 798  1759.597
 799  1577.88
 800  1553.97
 801  1570.787
 802  1735.267
 803  1788.937
 804  1747.911
 805  1513.726
 806  1382.413
 807  1347.718
 808  1467.356
 809  1663.608
 810  1765.798
 811  2023.08
 812  2135.893
 813  2090.379
 814  1883.462
 815  1799.215
 816  1711.034
 817  1679.708
 818  1504.921
 819  1436.963
 820  1331.688
 821  1291.626
 822  1321.634
 823  1301.43
 824  1510.525
 825  1561.869
 826  1833.861
 827  2027.1
 828  2233.075
 829  2112.2
 830  2051.176
 831  1913.454
 832  1852.451
 833  1774.494
 834  1696.662
 835  1585.044
 836  1554.252
 837  1567.095
 838  1533.138
 839  1526.23
 840  1528.175
 841  1602.203
 842  1726.571
 843  1910.385
 844  2069.111
 845  2198.421
 846  2280.311
 847  2069.527
 848  1894.381
 849  1779.875
 850  1748.433
 851  1545.324
 852  1341.31
 853  1415.659
 854  1362.95
 855  1254.233
 856  1216.811
 857  1410.806
 858  1414.764
 859  1446.156
 860  1697.904
 861  1996.98
 862  2028.965
 863  2022.993
 864  1949.412
 865  1730.428
 866  1521.558
 867  1613.578
 868  1815.822
 869  1768.006
 870  1609.201
 871  1598.427
 872  1505.761
 873  1416.604
 874  1252.947
 875  1382.174
 876  1497.805
 877  1718.572
 878  1973.246
 879  2035.051
 880  2101.322
 881  2051.371
 882  2040.816
 883  1731.703
 884  1541.188
 885  1584.601
 886  1691.56
 887  1516.463
 888  1297.932
 889  1172.212
 890  1192.483
 891  1329.383
 892  1498.753
 893  1763.774
 894  1793.446
 895  2036.265
 896  2159.608
 897  2235.435
 898  2074.249
 899  1922.109
 900  1993.954
 901  1907.35
 902  1815.094
 903  1790.795
 904  1714.819
 905  1481.828
 906  1445.291
 907  1463.454
 908  1815.912
 909  2073.589
 910  2301.722
 911  2434.907
 912  2203.432
 913  1965.839
 914  1788.075
 915  1751.286
 916  1809.117
 917  1775.182
 918  1987.236
 919  1893.234
 920  1661.983
 921  1445.06
 922  1561.788
 923  1537.463
 924  1480.23
 925  1589.205
 926  1868.324
 927  1972.739
 928  2150.926
 929  2211.626
 930  2195.353
 931  2037.834
 932  2169.089
 933  2219.213
 934  2048.56
 935  1777.457
 936  1840.78
 937  1762.608
 938  1676.017
 939  1546.878
 940  1607.492
 941  1802.216
 942  1919.544
 943  2108.732
 944  2179.875
 945  2147.403
 946  2078.657
 947  1859.594
 948  1904.524
 949  1789.627
 950  1800.332
 951  1785.191
 952  1896.668
 953  1850.654
 954  1843.811
 955  1820.928
 956  1876.731
 957  1657.859
 958  1666.464
 959  1874.893
 960  2201.844
 961  2222.705
 962  2108.278
 963  2184.019
 964  2079.248
 965  1942.631
 966  1870.935
 967  1972.521
 968  2121.241
 969  2124.224
 970  2209.898
 971  2010.091
 972  1747.643
 973  1592.481
 974  1649.14
 975  1754.519
 976  1976.484
 977  2162.938
 978  2087.884
 979  1851.314
 980  1742.883
 981  1770.727
 982  1691.542
 983  1687.732
 984  1806.331
 985  1899.449
 986  1932.383
 987  1834.033
 988  1739.086
 989  1599.888
 990  1801.862
 991  1927.013
 992  2116.885
 993  1979.114
 994  2119.951
 995  2079.889
 996  2174.853
 997  2075.445
 998  2018.98
 999  1797.67
1000  1617.493
1001  1791.612
1002  1872.272
1003  1884.879
1004  1721.087
1005  1596.548
1006  1582.642
1007  1527.262
1008  1736.836
1009  2016.625
1010  2129.658
1011  2130.387
1012  2023.792
1013  2017.522
1014  1720.588
1015  1600.637
1016  1659.091
1017  1705.12
1018  1481.292
1019  1383.143
1020  1405.327
1021  1254.253
1022  1168.502
1023  1371.945
