# Input file       =  1211513688.100121_cleaned.dat
# Candidate        =  PSR_0332+5434
# Telescope        =  AR
# Epoch_topo       =  58266.149387732883
# Epoch_bary       =  N/A
# T_sample         =  0.002
# Data Folded      =  7143424
# Data Avg         =  0.063706393754876
# Data StdDev      =  1.00015883139117 
# Profile Bins     =  512
# Profile Avg      =  888.833543367742 
# Profile StdDev   =  118.137345420963 
# Reduced chi-sqr  =  1.632
# Prob(Noise)      <  6.32e-18   (~8.5 sigma)
# P_topo (ms)      =  714.520686437813  +/- 8.91e-05
# P'_topo (s/s)    =  -0                +/- 4.83e-11
# P''_topo (s/s^2) =  0                 +/- 2.19e-14
# P_bary (ms)      =  N/A
# P'_bary (s/s)    =  N/A
# P''_bary (s/s^2) =  N/A
# P_orb (s)        =  N/A
# asin(i)/c (s)    =  N/A
# eccentricity     =  N/A
# w (rad)          =  N/A
# T_peri           =  N/A
######################################################
   0  835.6719
   1  747.031
   2  758.7103
   3  732.762
   4  667.5682
   5  661.8032
   6  735.1647
   7  722.0803
   8  797.6678
   9  763.3812
  10  745.5813
  11  803.5721
  12  898.9686
  13  763.1395
  14  752.64
  15  842.3816
  16  834.8226
  17  854.0055
  18  818.8191
  19  647.9133
  20  720.5725
  21  745.4674
  22  711.3333
  23  825.5841
  24  840.1422
  25  988.0899
  26  880.9025
  27  711.3541
  28  770.6017
  29  759.6711
  30  744.5588
  31  829.3786
  32  920.3367
  33  930.7741
  34  887.3405
  35  857.8228
  36  765.1444
  37  735.1329
  38  688.5488
  39  688.9099
  40  729.4811
  41  918.0068
  42  1018.06
  43  849.2292
  44  811.1538
  45  890.0221
  46  876.2241
  47  974.5767
  48  1005.386
  49  860.1014
  50  873.8114
  51  816.6716
  52  862.4794
  53  872.8093
  54  827.1559
  55  867.1135
  56  867.8242
  57  851.2007
  58  869.1064
  59  738.5839
  60  846.5911
  61  917.0958
  62  962.248
  63  1001.654
  64  918.0778
  65  919.1355
  66  918.6341
  67  883.9064
  68  917.6266
  69  996.0417
  70  1069.919
  71  1254.74
  72  1359.46
  73  1538.604
  74  1610.184
  75  1507.738
  76  1177.546
  77  942.1986
  78  906.1038
  79  863.1016
  80  844.1291
  81  883.9288
  82  919.5541
  83  961.489
  84  939.0579
  85  834.9492
  86  905.1985
  87  913.6245
  88  988.8513
  89  957.7057
  90  948.0048
  91  864.1909
  92  976.8342
  93  846.1509
  94  707.1896
  95  841.8561
  96  905.4263
  97  909.7775
  98  917.4119
  99  922.1242
 100  1004.662
 101  915.0045
 102  822.502
 103  732.2714
 104  758.9952
 105  944.9847
 106  1011.592
 107  985.4225
 108  1098.251
 109  1049.945
 110  940.4581
 111  930.1031
 112  1013.102
 113  1021.802
 114  948.3384
 115  1066.236
 116  1058.416
 117  1043.469
 118  953.4883
 119  869.6923
 120  871.3795
 121  941.7753
 122  1094.026
 123  964.4515
 124  924.5508
 125  943.0023
 126  923.4218
 127  970.2118
 128  920.6481
 129  979.9413
 130  913.7062
 131  949.3048
 132  886.0784
 133  922.909
 134  943.8118
 135  883.821
 136  872.4373
 137  868.039
 138  803.688
 139  866.7836
 140  916.3696
 141  941.9938
 142  923.4042
 143  964.0818
 144  878.3002
 145  988.954
 146  1014.694
 147  978.3004
 148  975.7637
 149  1014.144
 150  930.3856
 151  958.1315
 152  934.299
 153  870.1019
 154  791.3537
 155  846.4741
 156  1005.429
 157  998.6901
 158  970.5303
 159  1010.699
 160  1078.595
 161  1034.399
 162  945.4958
 163  848.5446
 164  1026.11
 165  1010.624
 166  964.0306
 167  923.1633
 168  905.1262
 169  903.3746
 170  956.3038
 171  908.9336
 172  839.8979
 173  950.3947
 174  1077.735
 175  926.2344
 176  844.5519
 177  1071.134
 178  1024.667
 179  1078.46
 180  1007.229
 181  960.289
 182  1032.928
 183  1037.804
 184  929.7628
 185  887.4897
 186  920.8702
 187  1008.08
 188  988.9859
 189  968.2191
 190  1072.43
 191  1075.265
 192  1054.848
 193  810.6305
 194  886.2772
 195  956.7556
 196  906.9492
 197  954.0031
 198  988.1041
 199  873.0379
 200  891.3945
 201  967.4021
 202  933.6295
 203  863.4254
 204  883.9059
 205  934.4369
 206  968.5168
 207  1016.678
 208  854.0087
 209  868.5188
 210  1021.493
 211  1054.02
 212  963.9764
 213  920.8793
 214  900.7091
 215  819.2866
 216  1042.05
 217  971.1279
 218  983.0767
 219  983.8353
 220  956.0516
 221  1010.125
 222  923.8959
 223  972.0869
 224  974.1278
 225  911.4105
 226  1012.555
 227  1065.128
 228  1076.9
 229  950.9182
 230  877.2004
 231  1018.174
 232  1110.348
 233  1041.299
 234  1035.753
 235  1007.602
 236  960.694
 237  832.4217
 238  897.239
 239  927.0126
 240  928.871
 241  1006.035
 242  981.5366
 243  844.7045
 244  840.5504
 245  913.5422
 246  924.3485
 247  1003.003
 248  986.034
 249  920.4386
 250  1022.937
 251  889.0002
 252  816.65
 253  845.4104
 254  1004.366
 255  1031.899
 256  1010.717
 257  936.8724
 258  912.2405
 259  906.1942
 260  890.1166
 261  831.3868
 262  996.3517
 263  959.677
 264  927.4882
 265  919.5686
 266  931.3934
 267  875.9714
 268  827.2328
 269  851.9839
 270  880.8079
 271  835.7612
 272  902.9797
 273  1087.83
 274  1079.622
 275  983.408
 276  965.0651
 277  924.9112
 278  877.1998
 279  866.9143
 280  817.6243
 281  880.2817
 282  860.496
 283  870.087
 284  931.1096
 285  940.0327
 286  841.7167
 287  839.0468
 288  861.6609
 289  974.6734
 290  941.4627
 291  869.297
 292  964.1828
 293  912.3464
 294  815.6006
 295  926.2833
 296  932.6407
 297  986.8499
 298  1045.559
 299  922.3297
 300  915.0064
 301  865.8815
 302  829.5659
 303  879.489
 304  818.2721
 305  915.1749
 306  876.1442
 307  813.2121
 308  887.0224
 309  919.4927
 310  979.2732
 311  900.1109
 312  753.3569
 313  824.8754
 314  891.6204
 315  840.0085
 316  812.2582
 317  650.9054
 318  733.2568
 319  763.7896
 320  903.6728
 321  936.2101
 322  790.5139
 323  937.2297
 324  980.3749
 325  783.9626
 326  712.9515
 327  867.0341
 328  985.794
 329  964.1914
 330  867.6907
 331  878.6163
 332  903.1779
 333  803.8719
 334  688.1126
 335  766.2404
 336  795.2394
 337  767.8452
 338  723.055
 339  820.7716
 340  743.7764
 341  661.3154
 342  869.7804
 343  913.4634
 344  878.9928
 345  801.1083
 346  1018.339
 347  906.8115
 348  776.4513
 349  780.1523
 350  766.7261
 351  725.2932
 352  821.1646
 353  915.8788
 354  941.4487
 355  928.8347
 356  944.5287
 357  828.3201
 358  788.071
 359  883.7329
 360  799.0145
 361  712.5987
 362  807.0355
 363  857.4935
 364  907.802
 365  893.3352
 366  857.8719
 367  739.46
 368  772.7199
 369  862.1011
 370  754.8949
 371  942.9301
 372  832.9752
 373  856.1456
 374  893.3488
 375  952.9718
 376  891.045
 377  837.4932
 378  824.4335
 379  944.9189
 380  922.6688
 381  851.449
 382  774.9172
 383  765.5926
 384  784.3297
 385  817.4229
 386  836.1462
 387  879.5065
 388  828.2075
 389  834.6533
 390  700.1862
 391  713.6794
 392  739.4117
 393  712.3499
 394  810.6616
 395  833.1635
 396  797.0128
 397  793.5126
 398  826.1906
 399  781.5017
 400  663.0192
 401  760.0418
 402  784.5998
 403  832.1824
 404  824.7301
 405  984.8531
 406  881.7314
 407  764.5687
 408  808.0765
 409  796.8104
 410  834.286
 411  840.3652
 412  866.1168
 413  736.7443
 414  765.0678
 415  853.9487
 416  780.6842
 417  752.2252
 418  794.7559
 419  799.5176
 420  831.8549
 421  837.3008
 422  983.131
 423  988.5826
 424  817.7673
 425  808.3685
 426  887.8666
 427  957.9491
 428  1002.381
 429  1107.439
 430  855.4341
 431  794.8587
 432  805.6473
 433  778.7914
 434  815.5538
 435  738.7861
 436  768.4852
 437  792.4327
 438  872.7267
 439  938.2156
 440  817.3927
 441  808.8275
 442  852.5026
 443  781.5995
 444  722.5753
 445  852.8635
 446  940.3134
 447  993.674
 448  893.2479
 449  792.3807
 450  820.7416
 451  811.2263
 452  867.9595
 453  764.8575
 454  793.4471
 455  829.8828
 456  815.1696
 457  708.0604
 458  855.1885
 459  813.6391
 460  776.8889
 461  862.6275
 462  923.9066
 463  887.7454
 464  936.8244
 465  879.8598
 466  805.9725
 467  815.4097
 468  952.2994
 469  820.9496
 470  750.6031
 471  955.6843
 472  927.8238
 473  898.2856
 474  745.8354
 475  784.2194
 476  838.9905
 477  757.1433
 478  731.2259
 479  799.8745
 480  812.8576
 481  814.7377
 482  735.966
 483  750.3257
 484  779.085
 485  739.2536
 486  831.0703
 487  880.9747
 488  856.1431
 489  948.9275
 490  812.7542
 491  838.9194
 492  855.0615
 493  872.5962
 494  902.8018
 495  935.8506
 496  1049.024
 497  965.9615
 498  873.3439
 499  848.3012
 500  851.2892
 501  885.7017
 502  857.4904
 503  875.139
 504  932.9054
 505  949.4171
 506  827.9807
 507  809.9308
 508  844.8836
 509  775.7071
 510  825.5473
 511  962.0186
