# Input file       =  1211513688.100121_cleaned.dat
# Candidate        =  PSR_0332+5434
# Telescope        =  AR
# Epoch_topo       =  58266.149387732883
# Epoch_bary       =  N/A
# T_sample         =  0.002
# Data Folded      =  7143424
# Data Avg         =  0.451934071824836
# Data StdDev      =  7.43906025908335 
# Profile Bins     =  512
# Profile Avg      =  6305.38878329688 
# Profile StdDev   =  878.691267678238 
# Reduced chi-sqr  =  0.855
# Prob(Noise)      <  0.992   (~0.0 sigma)
# P_topo (ms)      =  714.520686437813  +/- 4.27e-05
# P'_topo (s/s)    =  -0                +/- 2.32e-11
# P''_topo (s/s^2) =  0                 +/- 1.05e-14
# P_bary (ms)      =  N/A
# P'_bary (s/s)    =  N/A
# P''_bary (s/s^2) =  N/A
# P_orb (s)        =  N/A
# asin(i)/c (s)    =  N/A
# eccentricity     =  N/A
# w (rad)          =  N/A
# T_peri           =  N/A
######################################################
   0  6530.661
   1  5934.943
   2  5778.068
   3  5364.356
   4  5068.136
   5  4763.167
   6  5258.912
   7  5832.572
   8  6298.608
   9  5870.15
  10  5853.779
  11  5967.371
  12  6012.711
  13  5673.619
  14  5724.551
  15  5908.361
  16  6498.965
  17  6386.182
  18  6022.52
  19  5048.881
  20  4885.521
  21  5176.734
  22  4917.128
  23  5641.559
  24  5829.685
  25  6574.597
  26  6497.391
  27  5792.444
  28  5674.601
  29  5591.925
  30  5702.51
  31  6241.074
  32  7176.113
  33  6934.473
  34  6569.754
  35  6304.201
  36  5438.857
  37  5515.111
  38  5387.873
  39  5486.421
  40  5819.065
  41  6903.268
  42  7503.419
  43  5987.445
  44  5753.25
  45  6299.316
  46  6457.87
  47  6725.621
  48  7188.698
  49  6837.914
  50  6842.635
  51  6226.965
  52  6401.451
  53  6670.16
  54  5994.956
  55  5841.945
  56  6245.903
  57  6591.396
  58  6860.17
  59  6355.341
  60  6469.832
  61  6609.752
  62  6520.287
  63  6886.458
  64  6639.31
  65  6910.676
  66  6875.232
  67  7126.143
  68  6404.473
  69  6085.322
  70  6477.425
  71  7091.354
  72  7325.785
  73  8352.183
  74  9077.232
  75  8640.658
  76  7466.646
  77  6348.266
  78  5943.642
  79  5700.052
  80  5887.479
  81  6751.747
  82  6926.828
  83  6966.237
  84  6500.624
  85  5832.071
  86  5135.236
  87  5051.253
  88  5861.706
  89  6160.651
  90  6801.647
  91  5901.771
  92  7081.635
  93  6352.546
  94  5559.175
  95  6258.52
  96  6685.323
  97  6798.466
  98  6586.003
  99  6756.636
 100  6345.68
 101  5875.909
 102  5472.294
 103  5639.655
 104  5835.619
 105  6093.525
 106  6535.064
 107  7331.942
 108  7370.971
 109  6559.312
 110  6351.949
 111  6493.166
 112  6634.536
 113  6939.344
 114  6681.149
 115  7448.417
 116  7278.198
 117  7339.844
 118  6934.892
 119  6184.943
 120  6063.228
 121  6458.325
 122  7006.453
 123  6556.347
 124  7158.2
 125  6791.856
 126  5990.086
 127  6349.383
 128  6411.084
 129  6461.823
 130  6565.357
 131  6627.675
 132  6739.069
 133  6571.4
 134  6757.324
 135  6195.271
 136  5601.913
 137  5501.949
 138  5491.792
 139  6273.48
 140  6762.14
 141  6997.447
 142  6825.352
 143  6301.502
 144  5627.601
 145  6503.328
 146  6595.27
 147  6954.228
 148  7236.07
 149  6977.312
 150  6607.422
 151  6148.708
 152  5921.633
 153  6016.534
 154  6062.352
 155  6207.215
 156  6148.408
 157  6742.08
 158  6851.005
 159  6544.328
 160  6687.227
 161  6855.062
 162  6130.552
 163  5693.968
 164  7247.214
 165  6353.278
 166  6797.77
 167  6666.123
 168  6077.964
 169  5720.906
 170  5645.956
 171  5918.663
 172  5656.166
 173  6489.406
 174  7196.298
 175  6769.577
 176  6042.709
 177  6975.667
 178  6622.673
 179  6719.828
 180  6377.566
 181  6527.547
 182  7403.794
 183  7270.492
 184  5922.712
 185  5748.811
 186  5710.62
 187  6073.6
 188  6199.822
 189  6731.876
 190  6813.759
 191  6665.986
 192  6635.653
 193  5778.975
 194  5927.357
 195  5978.668
 196  6138.871
 197  6666.695
 198  6783.382
 199  6315.54
 200  6405.359
 201  6205.39
 202  5711.318
 203  5762.127
 204  5817.153
 205  6064.496
 206  6417.661
 207  6666.73
 208  5920.284
 209  6131.525
 210  6504.916
 211  6586.936
 212  6153.139
 213  5832.336
 214  6448.473
 215  6009.422
 216  6799.42
 217  6038.126
 218  6129.148
 219  6142.518
 220  5666.952
 221  6779.251
 222  6665.569
 223  6680.837
 224  6420.765
 225  6363.255
 226  7114.075
 227  7250.257
 228  7318.658
 229  6806.304
 230  6352.588
 231  6798.469
 232  7473.103
 233  7270.189
 234  6737.167
 235  6842.755
 236  6480.512
 237  5667.144
 238  5854.744
 239  6650.478
 240  6944.314
 241  6792.697
 242  6426.28
 243  5969.677
 244  6486.797
 245  6238.889
 246  6061.172
 247  6876.985
 248  6535.17
 249  6340.417
 250  6234.367
 251  5376.375
 252  5125.501
 253  5940.142
 254  6236.433
 255  6554.326
 256  6670.9
 257  6784.242
 258  6504.343
 259  6119.419
 260  6087.291
 261  6002.821
 262  6789.418
 263  6468.5
 264  6635.137
 265  6484.16
 266  6140.713
 267  5598.186
 268  5729.837
 269  6065.054
 270  6173.736
 271  6016.373
 272  6099.632
 273  7369.682
 274  7454.749
 275  6511.338
 276  6737.913
 277  6847.667
 278  6244.57
 279  6239.744
 280  6248.495
 281  6613.208
 282  6693.317
 283  6570.394
 284  6346.918
 285  6350.085
 286  6097.752
 287  6539.925
 288  6365.099
 289  6384.752
 290  6705.601
 291  6358.135
 292  6728.001
 293  6406.885
 294  6098.451
 295  6478.528
 296  7002.846
 297  7028.399
 298  6931.957
 299  6407.553
 300  6307.178
 301  5938.557
 302  5533.573
 303  5971.752
 304  5998.763
 305  6145.848
 306  6092.252
 307  6342.065
 308  6083.439
 309  6035.562
 310  6897.441
 311  6771.11
 312  5972.167
 313  6299.669
 314  6749.769
 315  5993.655
 316  5849.299
 317  5201.016
 318  5445.285
 319  5725.588
 320  6279.667
 321  6572.728
 322  6253.238
 323  6618.26
 324  6345.364
 325  5906.882
 326  5542.625
 327  6047.589
 328  6862.683
 329  6921.783
 330  6402.696
 331  5942.936
 332  5948.837
 333  5418.819
 334  4483.271
 335  4813.836
 336  5790.131
 337  5708.354
 338  5824.591
 339  6486.083
 340  5577.866
 341  5115.822
 342  5676.207
 343  5878.303
 344  6013.317
 345  5750.145
 346  7432.204
 347  7075.436
 348  6092.424
 349  5229.945
 350  5016.054
 351  4720.859
 352  4987.057
 353  5898.661
 354  6511.428
 355  6738.474
 356  6115.896
 357  5928.834
 358  5542.253
 359  5761.477
 360  5584.16
 361  5476.229
 362  5806.376
 363  5899.845
 364  6522.091
 365  6421.775
 366  5631.252
 367  5085.02
 368  5984.938
 369  5729.029
 370  5363.021
 371  6632.419
 372  6603.904
 373  6512.244
 374  6193.901
 375  6255.209
 376  6414.979
 377  6027.207
 378  6119.345
 379  6912.712
 380  6832.903
 381  6443.16
 382  5993.86
 383  5590.205
 384  5204.658
 385  5305.532
 386  6333.418
 387  6719.049
 388  6057.475
 389  6029.996
 390  5819.684
 391  5226.503
 392  5543.163
 393  5831.88
 394  6127.466
 395  6437.241
 396  6370.23
 397  6539.988
 398  6330.389
 399  5934.833
 400  5251.418
 401  5359.398
 402  5794.948
 403  6245.613
 404  6444.931
 405  7009.834
 406  6765.643
 407  6253.623
 408  6395.495
 409  6242.394
 410  6551.186
 411  6920.744
 412  7034.073
 413  6075.613
 414  6088.55
 415  6264.857
 416  5813.353
 417  5870.602
 418  6177.808
 419  5703.411
 420  6155.227
 421  6220.624
 422  7233.725
 423  6837.157
 424  5954.9
 425  6019.525
 426  6249.813
 427  6330.581
 428  6503.897
 429  7704.737
 430  6988.253
 431  6277.766
 432  5531.567
 433  5237.337
 434  5582.311
 435  5668.36
 436  6118.45
 437  6626.278
 438  7068.999
 439  7192.437
 440  6513.559
 441  5931.508
 442  6483.523
 443  6629.489
 444  6187.714
 445  6805.522
 446  7397.085
 447  7408.22
 448  6729.538
 449  5774.8
 450  5475.114
 451  5970.896
 452  6258.436
 453  5864.578
 454  6470.351
 455  6644.75
 456  5958.267
 457  6002.04
 458  6414.28
 459  6373.031
 460  6034.686
 461  6888.046
 462  7017.383
 463  6903.245
 464  7375.197
 465  6496.839
 466  5905.703
 467  5561.971
 468  6872.778
 469  6419.511
 470  6469.325
 471  7408.196
 472  6547.069
 473  6438.521
 474  5726.673
 475  6247.983
 476  6596.928
 477  6330.997
 478  6357.893
 479  6837.711
 480  6017.145
 481  5220.927
 482  5045.975
 483  5430.34
 484  5645.812
 485  5382.235
 486  6397.377
 487  6799.655
 488  6753.554
 489  7120.882
 490  6602.049
 491  6519.34
 492  6744.829
 493  6870.78
 494  7431.024
 495  7240.294
 496  7643.116
 497  6592.041
 498  6024.335
 499  5939.683
 500  6122.806
 501  6627.458
 502  6376.962
 503  6669.584
 504  7126.941
 505  7079.456
 506  6251.612
 507  5999.495
 508  5915.488
 509  5901.389
 510  6200.686
 511  7191.214
