# Input file       =  1211098148.107654_cleaned.dat
# Candidate        =  PSR_0332+5434
# Telescope        =  AR
# Epoch_topo       =  58261.339897079328
# Epoch_bary       =  N/A
# T_sample         =  0.002
# Data Folded      =  7340032
# Data Avg         =  1.26197978039377 
# Data StdDev      =  19.4394725447346 
# Profile Bins     =  1024
# Profile Avg      =  9045.51437877263 
# Profile StdDev   =  1645.82431909235 
# Reduced chi-sqr  =  0.897
# Prob(Noise)      <  0.992   (~0.0 sigma)
# P_topo (ms)      =  714.52542157341   +/- 0.000111
# P'_topo (s/s)    =  -0                +/- 5.84e-11
# P''_topo (s/s^2) =  0                 +/- 2.58e-14
# P_bary (ms)      =  N/A
# P'_bary (s/s)    =  N/A
# P''_bary (s/s^2) =  N/A
# P_orb (s)        =  N/A
# asin(i)/c (s)    =  N/A
# eccentricity     =  N/A
# w (rad)          =  N/A
# T_peri           =  N/A
######################################################
   0  9595.532
   1  9709.132
   2  10032.57
   3  9753.501
   4  9864.873
   5  9261.728
   6  9951.055
   7  10061.85
   8  10126.87
   9  10188.26
  10  10170.17
  11  10474.5
  12  9768.789
  13  9595.42
  14  9437.091
  15  9248.885
  16  9323.723
  17  9933.781
  18  10373.45
  19  10829.04
  20  10017.75
  21  9699.87
  22  9485.355
  23  9403.845
  24  9330.123
  25  9382.408
  26  9913.228
  27  9941.223
  28  9815.644
  29  10071.05
  30  10083.83
  31  10429.57
  32  10536.3
  33  10743.41
  34  10303.09
  35  9831.003
  36  9566.863
  37  9229.16
  38  9550.625
  39  9737.881
  40  9379.784
  41  8761.902
  42  9190.874
  43  9852.69
  44  9923.55
  45  9615.838
  46  9414.569
  47  8829.249
  48  9757.509
  49  9822.586
  50  9694.476
  51  8579.175
  52  8855.178
  53  8798.929
  54  8211.27
  55  8043.288
  56  8129.088
  57  8632.939
  58  8659.775
  59  9062.006
  60  9065.44
  61  8733.564
  62  8228.366
  63  8401.752
  64  8670.953
  65  8979.87
  66  9373.934
  67  9516.376
  68  9334.77
  69  8820.914
  70  9130.188
  71  9275.038
  72  8275.786
  73  8133.176
  74  8471.103
  75  8637.702
  76  7892.359
  77  8077.411
  78  8232.532
  79  8159.43
  80  7535.258
  81  7740.518
  82  8250.424
  83  8513.323
  84  8506.04
  85  8321.073
  86  8072.321
  87  7988.05
  88  7728.306
  89  7965.592
  90  7716.513
  91  7830.062
  92  8223.021
  93  8922.11
  94  9670.812
  95  10180.94
  96  9647.507
  97  8851.108
  98  8605.155
  99  8610.118
 100  8719.479
 101  8669.117
 102  8429.161
 103  8011.323
 104  8479.011
 105  8755.102
 106  8994.781
 107  8669.62
 108  8241.608
 109  8847.948
 110  8863.181
 111  9181.19
 112  9248.346
 113  10155.5
 114  10032.99
 115  10232.79
 116  10168.33
 117  9811.818
 118  8977.987
 119  8180.446
 120  8519.795
 121  8307.156
 122  8768.844
 123  8715.74
 124  9008.08
 125  9338.63
 126  9290.211
 127  9516.85
 128  8847.91
 129  8756.766
 130  8599.346
 131  9147.359
 132  9378.829
 133  8522.255
 134  8388.48
 135  9137.997
 136  9375.746
 137  9072.641
 138  9316.924
 139  8989.084
 140  9195.281
 141  8342.639
 142  8961.751
 143  9576.934
 144  9525.455
 145  9308.475
 146  8776.769
 147  8728.521
 148  9287.803
 149  8787.358
 150  9335.562
 151  9284.939
 152  8984.669
 153  7844.481
 154  7597.815
 155  7176.233
 156  7814.029
 157  7560.379
 158  8578.211
 159  8772.291
 160  8643.587
 161  8188.333
 162  7502.154
 163  7717.817
 164  7814.539
 165  7289.934
 166  7396.921
 167  7201.925
 168  7676.835
 169  7629.365
 170  7554.361
 171  7791.457
 172  8536.822
 173  9240.229
 174  10156.66
 175  9819.535
 176  9423.717
 177  8123.55
 178  7332.34
 179  7586.477
 180  7705.892
 181  8107.38
 182  8763.997
 183  8984.61
 184  8757.907
 185  8550.096
 186  8705.678
 187  8683.185
 188  8557.905
 189  8394.808
 190  9061.978
 191  8980.037
 192  9230.891
 193  8868.229
 194  8426.65
 195  8114.469
 196  8487.713
 197  9072.581
 198  9103.698
 199  9141.161
 200  9566.73
 201  10234.8
 202  9981.098
 203  9831.315
 204  9661.764
 205  9670.577
 206  9017.144
 207  8500.759
 208  8834.21
 209  9456.488
 210  9477.444
 211  9168.271
 212  8958.81
 213  9338.588
 214  8634.061
 215  8347.586
 216  8536.783
 217  9306.479
 218  9549.348
 219  8988.021
 220  9171.576
 221  9075.551
 222  8957.08
 223  9180.507
 224  9228.957
 225  9043.767
 226  8110.693
 227  8206.051
 228  9138.46
 229  9577.038
 230  8911.077
 231  8643.021
 232  8831.218
 233  8442.852
 234  8008.119
 235  8869.951
 236  9503.037
 237  9820.896
 238  8868.351
 239  8641.05
 240  9147.229
 241  10239.34
 242  11130.65
 243  10832.78
 244  10574.04
 245  9911.817
 246  9398.059
 247  8876.137
 248  9174.296
 249  9394.711
 250  9501.903
 251  9246.782
 252  9010.903
 253  9449.121
 254  9703.92
 255  10372.8
 256  10057.96
 257  9553.361
 258  9253.245
 259  8734.192
 260  8598.066
 261  7677.1
 262  7268.197
 263  7177.305
 264  8074.332
 265  9619.424
 266  9793.577
 267  9210.389
 268  7887.035
 269  8056.123
 270  8174.538
 271  8070.691
 272  8179.387
 273  7900.598
 274  8577.514
 275  8268.054
 276  8954.834
 277  8685.461
 278  8588.534
 279  8577.729
 280  8485.012
 281  8867.993
 282  8850.5
 283  9012.265
 284  8364.316
 285  7872.533
 286  8479.179
 287  8977.789
 288  9157.207
 289  8564.478
 290  8459.979
 291  8434.08
 292  7914.715
 293  7897.477
 294  8166.133
 295  8922.841
 296  8742.153
 297  8121.8
 298  8673.848
 299  8761.219
 300  9059.011
 301  8576.206
 302  8731.482
 303  9297.637
 304  9308.561
 305  8929.008
 306  7972.062
 307  8026.9
 308  8058.479
 309  8374.198
 310  8390.836
 311  8215.061
 312  8173.931
 313  8412.754
 314  8789.969
 315  8898.38
 316  8362.257
 317  8093.906
 318  8468.674
 319  9221.175
 320  8350.005
 321  7427.736
 322  7017.445
 323  7034.599
 324  7298.814
 325  7942.921
 326  9431.96
 327  9131.546
 328  8544.527
 329  8935.287
 330  9363.405
 331  9239.845
 332  7607.04
 333  7729.039
 334  8604.362
 335  9074.053
 336  9115.597
 337  9284.52
 338  9416.304
 339  9146.998
 340  8567.61
 341  9074.209
 342  8992.46
 343  9059.047
 344  8877.693
 345  9713.233
 346  9797.709
 347  9902.705
 348  9163.653
 349  9170.612
 350  9000.431
 351  9196.41
 352  8977.206
 353  8950.589
 354  9162.233
 355  9913.004
 356  10558.56
 357  10993.26
 358  11306.18
 359  10601.74
 360  9429.879
 361  8924.706
 362  9252.891
 363  9045.192
 364  8647.413
 365  8245.717
 366  7787.912
 367  7795.025
 368  8494.422
 369  9519.479
 370  10150.54
 371  10079.81
 372  9589.256
 373  9553.457
 374  9584.303
 375  9619.295
 376  9631.65
 377  10016.7
 378  10191.52
 379  9882.928
 380  10177.16
 381  11151.73
 382  10715.03
 383  10587.24
 384  10697.09
 385  10768.58
 386  9941.876
 387  9737.978
 388  10376.31
 389  9927.941
 390  9935.05
 391  10211.52
 392  10337.51
 393  9736.608
 394  9087.036
 395  9840.665
 396  10099.92
 397  10084.91
 398  9099.489
 399  8676.199
 400  8811.059
 401  9297.822
 402  9391.046
 403  9322.695
 404  8887.122
 405  8794.32
 406  9359.244
 407  9238.928
 408  8753.089
 409  8276.25
 410  8644.688
 411  9106.228
 412  8758.069
 413  7884.066
 414  7763.957
 415  7522.931
 416  8033.375
 417  8484.753
 418  8896.253
 419  8763.027
 420  8452.557
 421  7997.298
 422  7649.162
 423  7571.543
 424  7652.005
 425  7569.897
 426  8282.316
 427  8800.055
 428  9397.173
 429  9216.47
 430  8883.005
 431  9066.286
 432  9729.025
 433  10386.3
 434  9727.888
 435  9123.983
 436  8890.104
 437  8458.848
 438  8171.477
 439  8741.388
 440  8833.688
 441  8646.632
 442  8075.717
 443  8378.998
 444  8475.231
 445  8307.817
 446  9167.523
 447  9967.278
 448  9652.279
 449  8362.518
 450  7771.479
 451  8081.702
 452  8426.45
 453  8850.779
 454  8927.092
 455  9296.992
 456  9118.929
 457  9123.309
 458  9415.797
 459  8856.271
 460  8175.865
 461  8089.86
 462  8645.21
 463  9086.21
 464  8391.835
 465  7967.388
 466  7710.358
 467  8607.263
 468  8973.404
 469  8951.939
 470  8600.746
 471  8524.001
 472  8503.757
 473  8018.784
 474  8080.648
 475  8214.8
 476  8281.088
 477  8301.97
 478  8287.536
 479  8536.216
 480  8681.132
 481  8455.189
 482  9050.244
 483  9347.575
 484  9629.098
 485  8778.866
 486  8139.704
 487  7560.17
 488  7100.29
 489  6417.049
 490  6381.204
 491  6721.195
 492  7150.213
 493  7405.051
 494  7855.278
 495  8658.498
 496  8437.838
 497  8136.75
 498  7818.183
 499  8075.575
 500  8129.698
 501  7506.027
 502  7643.612
 503  8051.754
 504  8082.248
 505  7710.876
 506  8222.57
 507  7893.082
 508  8167.691
 509  8014.059
 510  8277.479
 511  8293.248
 512  8214.992
 513  8345.383
 514  8329.144
 515  8843.52
 516  9340.326
 517  9845.322
 518  9470.801
 519  9696.237
 520  9499.61
 521  10299.06
 522  9989.312
 523  9683.714
 524  8292.406
 525  7688.982
 526  7182.847
 527  7722.666
 528  7390.159
 529  8045.45
 530  8651.806
 531  9962.733
 532  10216.85
 533  10726.2
 534  10603.7
 535  10151.24
 536  9594.354
 537  8730.421
 538  8477.298
 539  8772.361
 540  8767.052
 541  8866.979
 542  8880.721
 543  9928.526
 544  10185.2
 545  10647.02
 546  10720.41
 547  10909.84
 548  10202.09
 549  10264.03
 550  9654.735
 551  9423.138
 552  8985.064
 553  9664.6
 554  10308.11
 555  11005.63
 556  11192.36
 557  10911.58
 558  10732.23
 559  10842.68
 560  10644.31
 561  10348.04
 562  9846.577
 563  9412.052
 564  9050.003
 565  8416.696
 566  8471.312
 567  8386.114
 568  9011.975
 569  9853.77
 570  10004.97
 571  9524.624
 572  9046.375
 573  8195.938
 574  7672.214
 575  7475.829
 576  8764.019
 577  9330.774
 578  9393.085
 579  9535.458
 580  9659.001
 581  9398.812
 582  9703.98
 583  9493.922
 584  9477.989
 585  9038.01
 586  9166.034
 587  8882.366
 588  8784.013
 589  9014.07
 590  9763.151
 591  9572.26
 592  9699.271
 593  10636.72
 594  11079.69
 595  10179.51
 596  9333.073
 597  8982.684
 598  9878.895
 599  9543.991
 600  10043.72
 601  9941.767
 602  10587.82
 603  10843.2
 604  10824.36
 605  10670.55
 606  10367.94
 607  10552.82
 608  10357.55
 609  10293.11
 610  10243.72
 611  9195.66
 612  8013.605
 613  7901.961
 614  8385.496
 615  8488.966
 616  8243.133
 617  8409.348
 618  9677.907
 619  10563.66
 620  11094.34
 621  10293.28
 622  9747.097
 623  8968.881
 624  8680.352
 625  8584.043
 626  9737.598
 627  9870.006
 628  9848.402
 629  9654.981
 630  9891.429
 631  9637.498
 632  9825.377
 633  9155.705
 634  8773.598
 635  7957.464
 636  7401.344
 637  6940.878
 638  7725.245
 639  9169.94
 640  10178.75
 641  9895.833
 642  10027.08
 643  10793.01
 644  11430
 645  10920.03
 646  9803.642
 647  8956.082
 648  8570.482
 649  8469.859
 650  7864.733
 651  7400.658
 652  8418.064
 653  9333.254
 654  9997.748
 655  9864.991
 656  9896.455
 657  10070.02
 658  9635.258
 659  9925.09
 660  9880.463
 661  9641.341
 662  9175.323
 663  8592.306
 664  8765.244
 665  9124.856
 666  9571.378
 667  10064.46
 668  9585.085
 669  9443.226
 670  9638.211
 671  9549.604
 672  9769.965
 673  8868.173
 674  8175.115
 675  7931.966
 676  8291.404
 677  9058.542
 678  8776.881
 679  9020.51
 680  9261.097
 681  9201.001
 682  9991.708
 683  9470.093
 684  9502.326
 685  10030.19
 686  10392.41
 687  10094.04
 688  9389.344
 689  8926.538
 690  8701.715
 691  8026.382
 692  7929.126
 693  7604.222
 694  6978.827
 695  7077.994
 696  7254.218
 697  7446.483
 698  7640.129
 699  8465.646
 700  8567.137
 701  8916.604
 702  9470.552
 703  9576.634
 704  9308.935
 705  8801.111
 706  10055.87
 707  10446.11
 708  9289.411
 709  7764.358
 710  7676.525
 711  7734.038
 712  7224.744
 713  7382.724
 714  8297.199
 715  8523.347
 716  8502.21
 717  9561.689
 718  9389.714
 719  8422.208
 720  7544.857
 721  8281.199
 722  8064.128
 723  7668.398
 724  7551.901
 725  8290.543
 726  8674.658
 727  8646.999
 728  8891.646
 729  8345.639
 730  8090.793
 731  7624.474
 732  7884.608
 733  8326.17
 734  8366.562
 735  8714.859
 736  8034.65
 737  9364.56
 738  9497.838
 739  10583.01
 740  10489.06
 741  10343.5
 742  10347.03
 743  10053.38
 744  9859.991
 745  8638.939
 746  8173.103
 747  8081.711
 748  7877.408
 749  8377.861
 750  8636.84
 751  8965.809
 752  8797.13
 753  8687.262
 754  8550.816
 755  8950.555
 756  8926.159
 757  9068.67
 758  9061.87
 759  8448.427
 760  7840.602
 761  7969.761
 762  8548.144
 763  9650.653
 764  10175.74
 765  10248.89
 766  9751.402
 767  9458.848
 768  9785.99
 769  9473.266
 770  8657.923
 771  8188.106
 772  8292.272
 773  9181.563
 774  9459.906
 775  9124.096
 776  9164.787
 777  9427.67
 778  10448.32
 779  11077.76
 780  11988.54
 781  11323.14
 782  11218.79
 783  10694.6
 784  10870.7
 785  9458.529
 786  8480.832
 787  8703.629
 788  9460.265
 789  9979.771
 790  9879.317
 791  9689.582
 792  9638.832
 793  9314.527
 794  9260.538
 795  9305.403
 796  9327.013
 797  9260.161
 798  8732.954
 799  8724.796
 800  9723.718
 801  10211.94
 802  9631.28
 803  8896.434
 804  9060.708
 805  9208.122
 806  9120.576
 807  8490.566
 808  9143.438
 809  9360.668
 810  10420.98
 811  10898.88
 812  11519.29
 813  11307.24
 814  10203.11
 815  9659.095
 816  8922.659
 817  7972.666
 818  8050.831
 819  8476.637
 820  9378.67
 821  8682.919
 822  8565.104
 823  8786.513
 824  9294.899
 825  9848.295
 826  10084.35
 827  9529.643
 828  8547.503
 829  8532.256
 830  9184.038
 831  9535.203
 832  9496.627
 833  9386.183
 834  9722.592
 835  8901.451
 836  9292.681
 837  9471.213
 838  9688.401
 839  8959.126
 840  7841.981
 841  7874.857
 842  8621.314
 843  8737.068
 844  8561.097
 845  8754.373
 846  9225.87
 847  9458.121
 848  9303.984
 849  10070.59
 850  9404.25
 851  9034.671
 852  8601.929
 853  8902.064
 854  9323.495
 855  9971.59
 856  9998.938
 857  9855.054
 858  9642.364
 859  9843.929
 860  9494.609
 861  9259.095
 862  8749.213
 863  8936.157
 864  8282.713
 865  8370.834
 866  8286.802
 867  8663.058
 868  9310.3
 869  9122.879
 870  8946.999
 871  9492.436
 872  9443.268
 873  9874.78
 874  9916.63
 875  10159.91
 876  9708.067
 877  9399.309
 878  9116.408
 879  9036.497
 880  8421.55
 881  8553.548
 882  9291.329
 883  10074.36
 884  10400.43
 885  10563.73
 886  10515.58
 887  10769.25
 888  9864.272
 889  10122.94
 890  9861.863
 891  10097.26
 892  9260.864
 893  8851.165
 894  7947.931
 895  8102.388
 896  8376.377
 897  9511.46
 898  9311.337
 899  9623.16
 900  9590.062
 901  9349.304
 902  8724.547
 903  7463.184
 904  7921.439
 905  8810.298
 906  9553.352
 907  9921.241
 908  9766.166
 909  9671.791
 910  9172.064
 911  9577.131
 912  9386.156
 913  9141.188
 914  8941.691
 915  8993.506
 916  8854.767
 917  8021.049
 918  8039.77
 919  8363.486
 920  8188.62
 921  8143.928
 922  8402.333
 923  9239.215
 924  9549.084
 925  9280.215
 926  9149.78
 927  9057.098
 928  9064.226
 929  8995.082
 930  8995.004
 931  9183.646
 932  8931.665
 933  9077.312
 934  8523.792
 935  9376.702
 936  9213.51
 937  9722.119
 938  9280.333
 939  8715.386
 940  8721.174
 941  9091.916
 942  8680.798
 943  8338.678
 944  7527.771
 945  8460.175
 946  8982.071
 947  10041.31
 948  10147.03
 949  9722.605
 950  9737.946
 951  10003.6
 952  10512.21
 953  10044.38
 954  8815.588
 955  8133.158
 956  8904.647
 957  9005.358
 958  7921.716
 959  7385.303
 960  8299.475
 961  8926.855
 962  9204.493
 963  9253.87
 964  9156.232
 965  9174.78
 966  9026.621
 967  9622.422
 968  9432.897
 969  8690.38
 970  8631.69
 971  8753.823
 972  10131.53
 973  10366.64
 974  10101.31
 975  10189.72
 976  10522.67
 977  10655.3
 978  10157.64
 979  9857.046
 980  9621.597
 981  8634.484
 982  8271.536
 983  8051.161
 984  8060.647
 985  7525.637
 986  7790.182
 987  8350.717
 988  9033.379
 989  9940.012
 990  10258.51
 991  9669.911
 992  9228.411
 993  9254.357
 994  9630.324
 995  8962.222
 996  7912.056
 997  7447.512
 998  7520.257
 999  8575.533
1000  8453.245
1001  8795.035
1002  8314.301
1003  8904.199
1004  9413.752
1005  9912.746
1006  10398.45
1007  10310.37
1008  10229.59
1009  9550.11
1010  9746.968
1011  8932.499
1012  8517.63
1013  8531.74
1014  8747.88
1015  9187.299
1016  9395.819
1017  9444.75
1018  8966.248
1019  9209.628
1020  9266.822
1021  8791.702
1022  8701.044
1023  8866.957
