# Input file       =  1211685997.11615_cleaned.dat
# Candidate        =  PSR_0332+5434
# Telescope        =  AR
# Epoch_topo       =  58268.143705048031
# Epoch_bary       =  N/A
# T_sample         =  0.002
# Data Folded      =  7143424
# Data Avg         =  0.0751028092280594
# Data StdDev      =  1.0000952144009  
# Profile Bins     =  512
# Profile Avg      =  1047.81965815483 
# Profile StdDev   =  118.129831072123 
# Reduced chi-sqr  =  1.371
# Prob(Noise)      <  4.52e-08   (~5.3 sigma)
# P_topo (ms)      =  714.518739014855  +/- 0.000146
# P'_topo (s/s)    =  -0                +/- 7.91e-11
# P''_topo (s/s^2) =  0                 +/- 3.59e-14
# P_bary (ms)      =  N/A
# P'_bary (s/s)    =  N/A
# P''_bary (s/s^2) =  N/A
# P_orb (s)        =  N/A
# asin(i)/c (s)    =  N/A
# eccentricity     =  N/A
# w (rad)          =  N/A
# T_peri           =  N/A
######################################################
   0  1009.695
   1  943.4147
   2  917.4017
   3  988.4526
   4  1069.65
   5  1034.111
   6  1142.965
   7  1187.858
   8  1112.56
   9  993.0233
  10  1117.322
  11  1061.727
  12  976.9342
  13  1036.43
  14  1089.625
  15  1074.128
  16  1120.239
  17  1097.261
  18  1167.296
  19  1088.425
  20  1032.136
  21  991.2811
  22  945.4749
  23  1055.607
  24  1040.731
  25  1161.893
  26  1151.546
  27  1154.033
  28  1021.425
  29  1088.422
  30  1127.329
  31  1087.113
  32  1194.631
  33  1113.514
  34  1198.209
  35  1146.777
  36  1045.07
  37  1065.167
  38  1076.791
  39  1045.593
  40  1060.704
  41  1108.944
  42  1196.084
  43  1191.165
  44  1141.251
  45  1099.317
  46  1036.889
  47  1124.103
  48  1064.601
  49  1042.588
  50  1157.795
  51  1230.192
  52  1163.659
  53  1142.342
  54  1145.87
  55  1094.264
  56  1110.563
  57  1232.297
  58  1214.091
  59  1081.079
  60  1168.684
  61  1189.267
  62  1125.614
  63  1135.951
  64  1064.419
  65  1117.582
  66  1222.779
  67  1215.034
  68  1120.861
  69  1082.349
  70  1156.953
  71  1136.057
  72  1102.3
  73  1134.657
  74  1105.87
  75  1176.257
  76  1107.136
  77  1103.76
  78  1078.07
  79  1069.584
  80  1013.184
  81  1089.103
  82  1153.005
  83  1057.244
  84  1047.592
  85  1112.017
  86  981.348
  87  844.6307
  88  1028.603
  89  1125.015
  90  1061.961
  91  1070.192
  92  1077.788
  93  1032.687
  94  1096.543
  95  1182.185
  96  1103.013
  97  1138.62
  98  1092.856
  99  1067.917
 100  1083.448
 101  1044.523
 102  1086.008
 103  1168.391
 104  1112.469
 105  1129.023
 106  1171.518
 107  1188.149
 108  1047.798
 109  1006.103
 110  1157.959
 111  1023.783
 112  1075.594
 113  1272.429
 114  1206.051
 115  1149.884
 116  1259.224
 117  1174.073
 118  1049.675
 119  1135.26
 120  1193.156
 121  1231.961
 122  1170.551
 123  1140.5
 124  1133.634
 125  1068.274
 126  1105.688
 127  1129.344
 128  1214.636
 129  1092.657
 130  973.7755
 131  1104.947
 132  1219.053
 133  1205.384
 134  1083.426
 135  1080.443
 136  1178.55
 137  1164.458
 138  1232.16
 139  1215.652
 140  1136.67
 141  1188.912
 142  1296.896
 143  1229.287
 144  1234.418
 145  1173.93
 146  1144.067
 147  1057.56
 148  1095.177
 149  1218.94
 150  1128.885
 151  1032.013
 152  1098.278
 153  1089.632
 154  1043.468
 155  1076.168
 156  1150.036
 157  1186.628
 158  1138.511
 159  1137.276
 160  1086.354
 161  1069.419
 162  1036.538
 163  1020.055
 164  959.4411
 165  1000.167
 166  958.092
 167  1005.347
 168  1116.405
 169  1010.616
 170  1066.893
 171  1135.76
 172  1131.836
 173  1023.085
 174  1034.317
 175  1083.156
 176  1099.508
 177  1081.19
 178  1100.851
 179  1079.57
 180  1091.196
 181  1145.939
 182  1143.425
 183  1191.946
 184  1101.909
 185  1061.697
 186  1052.811
 187  1078.288
 188  1010.774
 189  1124.596
 190  1097.997
 191  1144.783
 192  1026.362
 193  926.2419
 194  940.4988
 195  969.4183
 196  1043.633
 197  995.8091
 198  989.0403
 199  1186.011
 200  1125.87
 201  1054.092
 202  911.7889
 203  946.1909
 204  968.8903
 205  972.892
 206  988.0262
 207  1099.121
 208  1052.449
 209  986.6396
 210  1045.102
 211  979.3297
 212  1018.411
 213  1066.418
 214  1094.077
 215  1107.824
 216  1048.188
 217  1101.751
 218  1131.606
 219  988.5057
 220  891.3033
 221  955.2136
 222  944.3748
 223  991.5177
 224  978.7239
 225  988.4241
 226  988.9443
 227  1003.098
 228  1069.115
 229  1034.955
 230  1040.328
 231  1050.077
 232  1075.894
 233  1069.551
 234  1053.109
 235  985.3702
 236  918.4648
 237  1119.172
 238  1102.587
 239  1047.109
 240  1036.461
 241  974.0078
 242  906.4659
 243  946.7657
 244  976.4077
 245  962.463
 246  1048.022
 247  985.9141
 248  1083.866
 249  1098.59
 250  1147.362
 251  1112.632
 252  1103.482
 253  1095.857
 254  1151.398
 255  1165.257
 256  1160.617
 257  1017.81
 258  1091.567
 259  1054.479
 260  959.9846
 261  913.3615
 262  953.733
 263  1071.237
 264  1096.175
 265  1114.554
 266  1009.883
 267  1023.419
 268  1002.15
 269  1082.936
 270  1058.315
 271  963.66
 272  1024.212
 273  1100.918
 274  1035.382
 275  920.7449
 276  900.4619
 277  969.4536
 278  1094.962
 279  1089.586
 280  966.9573
 281  1163.446
 282  1257.647
 283  1058.081
 284  943.9357
 285  1029.157
 286  1013.716
 287  949.9751
 288  1076.238
 289  1075.519
 290  1022.784
 291  973.5204
 292  918.3199
 293  1011.761
 294  980.5722
 295  1014.45
 296  993.5391
 297  993.4334
 298  993.7996
 299  966.5811
 300  960.6933
 301  995.7538
 302  1069.501
 303  1067.48
 304  1007.903
 305  1047.085
 306  1076.95
 307  986.7933
 308  1003.898
 309  968.1985
 310  927.3439
 311  876.8845
 312  955.1565
 313  1108.021
 314  1011.859
 315  1077.666
 316  1071.564
 317  1154.297
 318  1196.993
 319  1200.143
 320  1413.112
 321  1516.843
 322  1558.768
 323  1559.998
 324  1465.506
 325  1221.632
 326  1077.049
 327  962.2678
 328  1033.539
 329  959.2393
 330  996.8229
 331  1046.918
 332  994.6962
 333  861.2638
 334  884.1218
 335  878.4282
 336  982.5229
 337  1040.654
 338  1073.859
 339  989.0972
 340  980.0605
 341  969.5305
 342  925.4888
 343  836.659
 344  735.0426
 345  820.2915
 346  874.9015
 347  1038.717
 348  1108.082
 349  920.0711
 350  903.3164
 351  894.6469
 352  911.1306
 353  931.2504
 354  839.6693
 355  913.4988
 356  966.1415
 357  1016.956
 358  995.1437
 359  987.6056
 360  917.2083
 361  898.9941
 362  953.666
 363  912.8944
 364  937.6428
 365  825.8029
 366  926.2468
 367  886.168
 368  970.3559
 369  882.3456
 370  978.9175
 371  934.1001
 372  1009.232
 373  920.9589
 374  969.3423
 375  910.7458
 376  983.5762
 377  989.6883
 378  996.8967
 379  1063.59
 380  1108.215
 381  1169.357
 382  1141.865
 383  1017.426
 384  984.5186
 385  1062.54
 386  1091.231
 387  1044.254
 388  917.8623
 389  935.3536
 390  957.0283
 391  927.1472
 392  1003.436
 393  909.2656
 394  942.4915
 395  1018.335
 396  1096.18
 397  1071.83
 398  1035.751
 399  1061.61
 400  938.6651
 401  962.5705
 402  919.3573
 403  995.1216
 404  1105.93
 405  1090.725
 406  1073.766
 407  1085.12
 408  1075.409
 409  983.7304
 410  1006.45
 411  1047.363
 412  1102.452
 413  1091.937
 414  1098.217
 415  981.2091
 416  942.4464
 417  1064.567
 418  1055.944
 419  1099.846
 420  1024.46
 421  1072.774
 422  993.051
 423  969.8783
 424  1026.005
 425  1014.063
 426  1048.247
 427  1094.008
 428  1082.556
 429  996.6579
 430  1022.243
 431  1105.49
 432  1088.467
 433  1061.422
 434  910.4756
 435  998.2968
 436  1031.161
 437  1019.869
 438  1025.989
 439  1049.526
 440  1111.094
 441  1045.094
 442  1022.98
 443  1035.101
 444  975.5345
 445  1040.206
 446  1147.469
 447  1140.439
 448  1031.744
 449  928.1891
 450  946.9969
 451  961.4872
 452  967.775
 453  1025.5
 454  979.7791
 455  970.8885
 456  954.5729
 457  919.6403
 458  835.8912
 459  986.9083
 460  963.5843
 461  880.458
 462  929.6193
 463  1093.311
 464  939.5779
 465  883.3109
 466  997.2514
 467  950.6498
 468  993.0106
 469  1030.311
 470  831.4681
 471  963.834
 472  1057.393
 473  1011.077
 474  941.9088
 475  908.8098
 476  878.0768
 477  933.996
 478  967.8461
 479  974.0626
 480  933.9164
 481  878.0055
 482  1036.47
 483  1071.283
 484  1054.331
 485  1014.173
 486  1020.773
 487  950.6601
 488  983.7289
 489  994.0051
 490  876.3288
 491  919.568
 492  947.4634
 493  955.5366
 494  1006.352
 495  1036.798
 496  1151.57
 497  954.7531
 498  847.0087
 499  950.6025
 500  997.3844
 501  1025.781
 502  955.1958
 503  918.5435
 504  848.5295
 505  932.7391
 506  995.6331
 507  1016.455
 508  979.4375
 509  1010.815
 510  1120.722
 511  1116.418
