# Input file       =  1211685997.11615_cleaned.dat
# Candidate        =  PSR_0332+5434
# Telescope        =  AR
# Epoch_topo       =  58268.143705048031
# Epoch_bary       =  N/A
# T_sample         =  0.002
# Data Folded      =  7143424
# Data Avg         =  0.423035568093086
# Data StdDev      =  5.63103108279654 
# Profile Bins     =  512
# Profile Avg      =  5902.15860314358 
# Profile StdDev   =  665.129420673323 
# Reduced chi-sqr  =  0.878
# Prob(Noise)      <  0.978   (~0.0 sigma)
# P_topo (ms)      =  714.518739197984  +/- 4.63e-05
# P'_topo (s/s)    =  -0                +/- 2.51e-11
# P''_topo (s/s^2) =  0                 +/- 1.14e-14
# P_bary (ms)      =  N/A
# P'_bary (s/s)    =  N/A
# P''_bary (s/s^2) =  N/A
# P_orb (s)        =  N/A
# asin(i)/c (s)    =  N/A
# eccentricity     =  N/A
# w (rad)          =  N/A
# T_peri           =  N/A
######################################################
   0  5950.236
   1  5914.655
   2  6605.434
   3  6839.359
   4  6597.179
   5  5751.512
   6  5675.498
   7  5927.937
   8  5792.452
   9  6197.459
  10  6302.129
  11  6785.125
  12  6751.877
  13  6056.835
  14  6066.218
  15  6174.346
  16  6247.454
  17  6105.99
  18  6300.548
  19  6441.072
  20  6560.021
  21  6270.817
  22  5879.291
  23  5773.792
  24  5937.562
  25  6082.399
  26  6022.964
  27  6665.468
  28  7115.964
  29  6888.309
  30  6546.646
  31  6204.028
  32  6174.665
  33  6104.314
  34  6542.15
  35  6645.982
  36  6634.287
  37  6653.84
  38  6530.991
  39  6173.448
  40  6337.925
  41  6288.299
  42  6218.067
  43  6492.111
  44  6739.696
  45  6522.294
  46  6423.541
  47  6304.41
  48  6327.974
  49  6390.483
  50  6513.155
  51  6317.509
  52  6493.147
  53  6552.951
  54  6010.339
  55  5782.187
  56  5474.336
  57  5581.921
  58  5884.315
  59  6408.357
  60  6596.724
  61  6416.36
  62  6235.199
  63  5779.96
  64  5266.89
  65  5512.212
  66  6162.876
  67  6286.65
  68  6491.912
  69  6519.958
  70  5968.323
  71  5705.74
  72  5755.856
  73  5701.207
  74  6046.874
  75  6260.952
  76  6127.9
  77  6435.318
  78  6516.197
  79  6228.229
  80  6475.857
  81  6158.458
  82  6173.249
  83  6296.984
  84  6683.007
  85  6650.337
  86  6085.538
  87  5975.834
  88  5537.797
  89  5392.391
  90  6092.328
  91  6095.979
  92  6201.655
  93  6721.136
  94  6835.376
  95  6344.247
  96  6162.019
  97  5997.673
  98  6105.105
  99  6310.012
 100  6352.591
 101  6608.66
 102  6442.528
 103  6368.099
 104  6116.512
 105  5982.848
 106  5580.418
 107  5436.742
 108  5841.235
 109  6414.281
 110  7015.898
 111  6741.54
 112  6339.046
 113  6247.572
 114  6231.027
 115  6464.865
 116  6366.735
 117  6384.971
 118  6430.121
 119  6979.904
 120  6552.923
 121  6229.848
 122  5940.598
 123  5817.097
 124  5894.957
 125  6280.695
 126  6806.562
 127  6588.818
 128  5908.859
 129  5976.193
 130  5934.14
 131  6113.707
 132  5983.363
 133  6358.065
 134  6392.605
 135  6609.5
 136  6308.331
 137  5926.692
 138  5697.806
 139  5429.475
 140  5733.166
 141  5690.494
 142  5881.982
 143  5989.573
 144  6273.574
 145  6517.829
 146  6105.747
 147  6155.143
 148  6015.181
 149  6103.566
 150  5980.345
 151  6216.131
 152  6138.971
 153  5858.649
 154  5575.128
 155  5744.047
 156  6075.108
 157  6256.458
 158  6375.261
 159  6345.338
 160  6588.962
 161  6195.804
 162  5972.784
 163  5994.729
 164  5940.688
 165  5879.87
 166  6403.895
 167  6723.5
 168  6490.441
 169  6022.333
 170  5330.266
 171  5375.131
 172  5390.028
 173  5670.917
 174  5744.424
 175  5905.879
 176  6473.857
 177  6548.844
 178  6352.095
 179  5776.841
 180  5463.087
 181  5699.123
 182  5796.28
 183  5845.836
 184  6405.17
 185  6267.275
 186  5711.909
 187  5613.901
 188  5540.583
 189  5583.904
 190  5868.487
 191  6048.05
 192  6259.488
 193  6378.797
 194  6211.737
 195  6077.622
 196  5858.566
 197  5644.112
 198  5842.08
 199  5718.217
 200  5809.367
 201  5646.859
 202  5546.267
 203  5764.857
 204  5370.208
 205  5668.542
 206  5592.152
 207  6018.33
 208  6089.319
 209  6186.201
 210  6118.997
 211  5826.883
 212  5760.394
 213  5434.654
 214  6221.706
 215  6130.657
 216  5894.792
 217  5988.351
 218  6073.667
 219  5612.866
 220  5424.371
 221  5208.619
 222  5039.463
 223  5648.79
 224  5574.745
 225  6020.295
 226  6305.18
 227  6236.604
 228  6047.123
 229  5901.666
 230  6002.041
 231  5974.083
 232  6378.875
 233  6216.94
 234  5573.565
 235  5600.285
 236  5518.364
 237  5217.531
 238  5071.67
 239  5206.342
 240  5819.279
 241  6159.31
 242  6230.547
 243  5973.224
 244  5771.98
 245  5611.759
 246  5733.667
 247  5784.302
 248  5630.884
 249  5975.622
 250  6286.788
 251  5863.047
 252  5180.921
 253  5063.38
 254  5433.837
 255  5670.154
 256  5776.895
 257  5412.889
 258  5918.856
 259  6621.678
 260  6231.335
 261  5761.527
 262  6019.757
 263  5737.854
 264  5573.853
 265  5891.346
 266  6047.335
 267  5909.65
 268  5656.453
 269  5173.413
 270  5401.371
 271  5462.375
 272  5727.066
 273  5709.49
 274  5843.987
 275  5863.365
 276  5735.799
 277  5531.21
 278  5186.001
 279  5843.896
 280  6035.608
 281  5868.09
 282  5683.809
 283  5858.738
 284  5424.354
 285  5435.732
 286  5421.605
 287  5044.099
 288  5138.424
 289  5425.846
 290  6244.287
 291  5771.283
 292  5918.185
 293  6126.721
 294  6219.959
 295  6159.449
 296  6039.422
 297  6658.188
 298  6741.554
 299  6999.427
 300  7003.633
 301  6848.457
 302  6089.036
 303  5404.9
 304  5045.501
 305  5137.201
 306  5203.739
 307  5387.75
 308  5760.358
 309  5652.442
 310  5076.915
 311  4832.679
 312  4667.075
 313  5180.108
 314  5539.348
 315  5902.865
 316  5448.583
 317  5505.344
 318  5010.273
 319  4666.004
 320  4650.778
 321  4475.263
 322  4854.136
 323  4725.195
 324  5505.251
 325  6074.32
 326  5733.393
 327  5400.847
 328  5279.871
 329  5334.068
 330  5394.417
 331  5130.58
 332  5365.948
 333  5577.567
 334  5647.55
 335  5206.686
 336  5127.725
 337  5028.309
 338  5161.89
 339  5265.555
 340  5207.149
 341  5431.733
 342  5544.862
 343  5764.945
 344  5447.859
 345  5487.778
 346  5523.911
 347  5327.626
 348  5307.139
 349  5737.499
 350  5882.508
 351  6014.446
 352  5487.523
 353  5275.2
 354  5417.485
 355  5536.731
 356  5847.687
 357  6220.76
 358  6426.832
 359  6413.631
 360  6109.126
 361  5720.736
 362  6050.019
 363  6114.265
 364  6241.874
 365  5619.686
 366  5814.5
 367  5884.712
 368  5502.942
 369  5514.171
 370  5454.083
 371  5538.196
 372  5981.43
 373  6322.849
 374  6349.553
 375  6226.541
 376  6050.407
 377  5672.81
 378  5912.666
 379  6059.556
 380  6247.907
 381  5998.459
 382  6339.254
 383  6086.683
 384  5884.467
 385  5680.783
 386  5241.953
 387  5429.932
 388  5734.414
 389  6270.75
 390  6498.981
 391  6672.001
 392  5947.584
 393  5290.108
 394  5534.752
 395  5698.445
 396  6135.551
 397  5983.711
 398  6266.33
 399  6013.738
 400  5970.123
 401  5473.052
 402  5409.792
 403  5176.709
 404  5712.6
 405  5978.215
 406  5921.737
 407  6136.868
 408  6698.386
 409  6319.197
 410  6152.081
 411  5613.164
 412  5624.207
 413  5809.381
 414  5701.104
 415  6051.333
 416  6196.106
 417  6015.59
 418  5547.025
 419  5495.593
 420  5632.692
 421  5531.753
 422  5837.256
 423  6361.117
 424  6694.033
 425  6312.392
 426  5767.988
 427  5528.883
 428  5541.436
 429  5624.101
 430  5554.692
 431  5782.755
 432  5637.879
 433  5655.049
 434  5475.665
 435  4908.966
 436  5369.827
 437  5365.538
 438  5383.916
 439  5157.052
 440  6023.505
 441  6183.139
 442  5757.098
 443  5751.083
 444  5470.211
 445  5646.127
 446  6033.702
 447  5538.768
 448  5490.613
 449  6085.368
 450  5848.095
 451  5324.599
 452  5421.64
 453  5393.986
 454  5502.101
 455  5632.434
 456  5965.878
 457  5970.003
 458  5732.901
 459  5658.939
 460  5752.258
 461  6119.09
 462  5967.197
 463  6047.777
 464  5738.629
 465  6016.569
 466  5947.382
 467  5406.382
 468  5160.187
 469  5039.684
 470  5199.549
 471  5402.817
 472  5795.674
 473  6402.252
 474  6278.305
 475  5641.348
 476  5468.253
 477  5423.768
 478  5608.164
 479  5830.243
 480  5623.776
 481  5705.577
 482  5785.798
 483  5730.788
 484  5066.517
 485  4857.445
 486  5242.873
 487  6067.522
 488  6444.396
 489  6123.602
 490  5897.035
 491  5805.071
 492  5517.976
 493  5891.494
 494  5671.914
 495  5928.442
 496  6318.966
 497  6524.827
 498  6031.735
 499  5939.668
 500  5927.523
 501  5269.798
 502  5242.609
 503  5867.808
 504  5833.218
 505  6155.899
 506  6293.564
 507  6790.932
 508  6522.706
 509  5980.901
 510  5594.067
 511  5379.876
