# Input file       =  1211973974.110982_cleaned.dat
# Candidate        =  PSR_0332+5434
# Telescope        =  AR
# Epoch_topo       =  58271.476772117843
# Epoch_bary       =  N/A
# T_sample         =  0.002
# Data Folded      =  7340032
# Data Avg         =  0.369063186928022
# Data StdDev      =  12.8378684201546 
# Profile Bins     =  1024
# Profile Avg      =  2645.48195767461 
# Profile StdDev   =  1086.90583052476 
# Reduced chi-sqr  =  0.815
# Prob(Noise)      <  1   (~0.0 sigma)
# P_topo (ms)      =  714.515839316457  +/- 0.000435
# P'_topo (s/s)    =  -0                +/- 2.29e-10
# P''_topo (s/s^2) =  0                 +/- 1.01e-13
# P_bary (ms)      =  N/A
# P'_bary (s/s)    =  N/A
# P''_bary (s/s^2) =  N/A
# P_orb (s)        =  N/A
# asin(i)/c (s)    =  N/A
# eccentricity     =  N/A
# w (rad)          =  N/A
# T_peri           =  N/A
######################################################
   0  3275.069
   1  3328.892
   2  3294.646
   3  3460.874
   4  3086.916
   5  2806.332
   6  2835.086
   7  3131.41
   8  3218.858
   9  3100.548
  10  3056.583
  11  2728.632
  12  2919.007
  13  2865.777
  14  3007.135
  15  3277.178
  16  3832.587
  17  3768.071
  18  3287.143
  19  2555.552
  20  2610.027
  21  2713.167
  22  3046.99
  23  3500.833
  24  4030.063
  25  4225.32
  26  4401.138
  27  3972.298
  28  3495.661
  29  2944.709
  30  2763.245
  31  2815.938
  32  2447.304
  33  2183.887
  34  2090.261
  35  2151.907
  36  2124.983
  37  2361
  38  2654.178
  39  2890.717
  40  3474.41
  41  3865.002
  42  3599.029
  43  2954.156
  44  2811.32
  45  2737.311
  46  2952.783
  47  2966.538
  48  3439.649
  49  3261.203
  50  3192.347
  51  2950.005
  52  2851.3
  53  3121.501
  54  2929.688
  55  3068.573
  56  3240.773
  57  3360.778
  58  3292.376
  59  2939.658
  60  3344.06
  61  3337.348
  62  3365.6
  63  3466.049
  64  3453.918
  65  3838.978
  66  3442.997
  67  3652.593
  68  3885.964
  69  3921.919
  70  3703.526
  71  3967.132
  72  4134.646
  73  3857.019
  74  3445.41
  75  3174.358
  76  3337
  77  3413.169
  78  3147.139
  79  2597.393
  80  2224.272
  81  2293.271
  82  2623.688
  83  3052.232
  84  3728.327
  85  3565.949
  86  3092.594
  87  2894.364
  88  3136.984
  89  3356.185
  90  3419.397
  91  3193.284
  92  2803.356
  93  2934.533
  94  3420.01
  95  3319.958
  96  2887.771
  97  2677.553
  98  2952.819
  99  2954.046
 100  2853.615
 101  3094.011
 102  3142.221
 103  3551.297
 104  3150.86
 105  2986.337
 106  2873.723
 107  3120.73
 108  2877.367
 109  2817.492
 110  2796.744
 111  3109.294
 112  3375.514
 113  3541.281
 114  3501.004
 115  3190.536
 116  3010.438
 117  3039.369
 118  2471.034
 119  2483.01
 120  2735.151
 121  3279.305
 122  3145.001
 123  2824.903
 124  2830.398
 125  3053.257
 126  3114.623
 127  3296.888
 128  3436.042
 129  3081.905
 130  2904.315
 131  3079.249
 132  3357.682
 133  3297.265
 134  3218.592
 135  2925.378
 136  3191.597
 137  2912.885
 138  2558.867
 139  2464.225
 140  2997.722
 141  3606.575
 142  3487.859
 143  3181.953
 144  2639.367
 145  2459.086
 146  2442.434
 147  3062.332
 148  2920.544
 149  3208.629
 150  2945.351
 151  3147.572
 152  3317.427
 153  3383.413
 154  3437.13
 155  3413.09
 156  3274.852
 157  3239.64
 158  2835.28
 159  2844.322
 160  2723.12
 161  3057.365
 162  3324.079
 163  3224.983
 164  3021.007
 165  2968.389
 166  3013.225
 167  3072.074
 168  3091.946
 169  3154.205
 170  2799.585
 171  2936.377
 172  3337.253
 173  3475.048
 174  3461.004
 175  3362.613
 176  3093.321
 177  3142.333
 178  2737.909
 179  2733.703
 180  2663.208
 181  2980.269
 182  3250.812
 183  3383.15
 184  3477.326
 185  3586.873
 186  3453.977
 187  3180.949
 188  2902.878
 189  2813.396
 190  2976.685
 191  2893.425
 192  2698.559
 193  2160.338
 194  1855.84
 195  1911.729
 196  2679.447
 197  2935.235
 198  2974.361
 199  2663.919
 200  2418.812
 201  1933.443
 202  1816.504
 203  1520.178
 204  1621.743
 205  1661.31
 206  1980.953
 207  2193.461
 208  2330.99
 209  2361.9
 210  2581.626
 211  2547.484
 212  2809.747
 213  3141.039
 214  3161.64
 215  3027.003
 216  2618.932
 217  2734.524
 218  2851.549
 219  2573.147
 220  2576.585
 221  2710.492
 222  2990.026
 223  3148.709
 224  3171.073
 225  3151.393
 226  2976.413
 227  2903.029
 228  2958.412
 229  2467.098
 230  2397.054
 231  2583.161
 232  3273.165
 233  3107.956
 234  3256.954
 235  3015.986
 236  3113.279
 237  3087.299
 238  3111.942
 239  2891.924
 240  2198.519
 241  2058.913
 242  2165.265
 243  2640
 244  2694.828
 245  2408.265
 246  2218.689
 247  2353.672
 248  2837.254
 249  2698.199
 250  2531.442
 251  1918.056
 252  1869.595
 253  2278.208
 254  2448.707
 255  2459.875
 256  2310.636
 257  2400.41
 258  2157.278
 259  1811.903
 260  1755.564
 261  1933.868
 262  1990.778
 263  1821.625
 264  2011.486
 265  2329.787
 266  2866.682
 267  2842.639
 268  2565.327
 269  2498.156
 270  2574.367
 271  2909.729
 272  2774.436
 273  2526.629
 274  2305.696
 275  2580.89
 276  2588.644
 277  2291.715
 278  1705.672
 279  1756.823
 280  1668.272
 281  2009.169
 282  1695.417
 283  2460.956
 284  2787.261
 285  3174.255
 286  2756.444
 287  2437.065
 288  2136.12
 289  2039.308
 290  1825.709
 291  1657.438
 292  1367.123
 293  1781.815
 294  1819.351
 295  1658.916
 296  1506.525
 297  1554.105
 298  1725.04
 299  1500.493
 300  1703.006
 301  2107.694
 302  2013.662
 303  1847.592
 304  1793.523
 305  2018.73
 306  2327.441
 307  2429.405
 308  2403.355
 309  2095.55
 310  2127.303
 311  2367.764
 312  2552.859
 313  2652.464
 314  2520.748
 315  2650.792
 316  2741.633
 317  2742.587
 318  2269.501
 319  1900.373
 320  1372.044
 321  1324.444
 322  1423.438
 323  1870.222
 324  2065.843
 325  2081.683
 326  1972.319
 327  2355.376
 328  2624.946
 329  2696.335
 330  2422.61
 331  2449.27
 332  3015.08
 333  3125.738
 334  2939.057
 335  2212.052
 336  2092.405
 337  2053.522
 338  2005.261
 339  1962.579
 340  1928.857
 341  2227.517
 342  2020.287
 343  2271.392
 344  2109.984
 345  2377.51
 346  2377.465
 347  2209.677
 348  2290.426
 349  2697.768
 350  2934.125
 351  3181.97
 352  2982.819
 353  2752.492
 354  2569.227
 355  2723.841
 356  2696.388
 357  2675.47
 358  2568.783
 359  3087.926
 360  2968.838
 361  2870.862
 362  2430.876
 363  2325.452
 364  2785.927
 365  3217.041
 366  3305.165
 367  2761.451
 368  2396.531
 369  2480.104
 370  2720.526
 371  2629.022
 372  2211.569
 373  1996.289
 374  2042.308
 375  2098.489
 376  2534.743
 377  2673.624
 378  2641.495
 379  2347.125
 380  2348.725
 381  2737.033
 382  2245.903
 383  2378.895
 384  2814.413
 385  3262.076
 386  3207.005
 387  2963.757
 388  3135.931
 389  3343.014
 390  3321.016
 391  3163.334
 392  2897.461
 393  3022.319
 394  3173.721
 395  3306.377
 396  3328.24
 397  3515.369
 398  3467.607
 399  2880.813
 400  2771.329
 401  2719.473
 402  2986.27
 403  3073.928
 404  3227.093
 405  3619.731
 406  3225.775
 407  2875.001
 408  2873.866
 409  2975.775
 410  3137.783
 411  2668.603
 412  2728.679
 413  2908.801
 414  3142.812
 415  3150.837
 416  2988.175
 417  2743.991
 418  2429.629
 419  2378.426
 420  2309.028
 421  2337.653
 422  2402.227
 423  2977.957
 424  3777.377
 425  3858.362
 426  3641.272
 427  3400.612
 428  2859.514
 429  2752.578
 430  2609.854
 431  2965.516
 432  2853.725
 433  2526.65
 434  2748.51
 435  2590.929
 436  2751.987
 437  2381.647
 438  2539.128
 439  2540.89
 440  2126.321
 441  2386.211
 442  2395.812
 443  2214.259
 444  1998.933
 445  1789.609
 446  1752.371
 447  1586.246
 448  1898.956
 449  2162.465
 450  2271.789
 451  2109.061
 452  1773.248
 453  1904.672
 454  2119.83
 455  2215.062
 456  1913.277
 457  1910.125
 458  1929.857
 459  2180.635
 460  2090.721
 461  1950.784
 462  1675.26
 463  1603.8
 464  1930.774
 465  1856.307
 466  2128.623
 467  2188.787
 468  2366.142
 469  2375.346
 470  2652.899
 471  3018.012
 472  3404.339
 473  3382.324
 474  3155.942
 475  2686.981
 476  2803.181
 477  2817.8
 478  2816.689
 479  2583.016
 480  2550.715
 481  2291.383
 482  2343.07
 483  2731.709
 484  3174.043
 485  3301.708
 486  3283.491
 487  3303.231
 488  3175.418
 489  3209.775
 490  3180.411
 491  3243.306
 492  2947.615
 493  2841.791
 494  2407.088
 495  2181.858
 496  2552.067
 497  2707.244
 498  2800.942
 499  2281.45
 500  2132.22
 501  1918.058
 502  2180.546
 503  2462.099
 504  2300.727
 505  2145.984
 506  1763.712
 507  1686.926
 508  1598.549
 509  1638.48
 510  1448.128
 511  1226.138
 512  1229.977
 513  1349.08
 514  1791.435
 515  1853.93
 516  1531.119
 517  1352.865
 518  1438.256
 519  1438.978
 520  1065.349
 521  994.0529
 522  1427.762
 523  1649.119
 524  2167.207
 525  2049.492
 526  2159.71
 527  2335.043
 528  2474.92
 529  2283.832
 530  1782.927
 531  2115.495
 532  2304.168
 533  2025.221
 534  2280.781
 535  2529.115
 536  3114.22
 537  3411.437
 538  3183.728
 539  2917.383
 540  2676.003
 541  2521.407
 542  2395.26
 543  2546.591
 544  2678.453
 545  2761.363
 546  2744.08
 547  2514.169
 548  2384.498
 549  2613.645
 550  2875.553
 551  3043.796
 552  2734.308
 553  2790.39
 554  3184.694
 555  3069.125
 556  2610.205
 557  1737.083
 558  2152.792
 559  2997.365
 560  3147.363
 561  2819.364
 562  2169.76
 563  1808.504
 564  1828.673
 565  2017.072
 566  2396.239
 567  2505.224
 568  2578.317
 569  2496.387
 570  2536.542
 571  2913.27
 572  2815.128
 573  2893.187
 574  2695.589
 575  2505.969
 576  2283.476
 577  2353.937
 578  2486.853
 579  2397.006
 580  2154.762
 581  2299.757
 582  2604.565
 583  2587.213
 584  2490.502
 585  2377.5
 586  2679.105
 587  3011.127
 588  3304.978
 589  3645.586
 590  3551.296
 591  3721.179
 592  3815.34
 593  3985.209
 594  4116.771
 595  4227.683
 596  4334.785
 597  3959.578
 598  4167.908
 599  4218.514
 600  3956.186
 601  3583.212
 602  3244.51
 603  3085.866
 604  2640.921
 605  2542.494
 606  2732.274
 607  2972.785
 608  2742.245
 609  2307.491
 610  2259.938
 611  1902.904
 612  2009.581
 613  2428.872
 614  3102.045
 615  2909.241
 616  2617.301
 617  2870.338
 618  2847.971
 619  2716.306
 620  2310
 621  2410.148
 622  2622.422
 623  2658.442
 624  2918.372
 625  3077.023
 626  3122.562
 627  2741.995
 628  2839.987
 629  2872.27
 630  2776.935
 631  2860.469
 632  2973.33
 633  3303.469
 634  3441.868
 635  3482.49
 636  3230.48
 637  2963.151
 638  3231.012
 639  3235.666
 640  3289.29
 641  3341.021
 642  3350.039
 643  3313.526
 644  3321.019
 645  3076.986
 646  3031.912
 647  3187.959
 648  2969.654
 649  2891.579
 650  2962.785
 651  3293.61
 652  3019.362
 653  2188.137
 654  1404.732
 655  892.8571
 656  1160.862
 657  1544.572
 658  1744.949
 659  2088.784
 660  2259.014
 661  2564.162
 662  2642.373
 663  2480.72
 664  2505.737
 665  2557.478
 666  2470.758
 667  2464.811
 668  2541.604
 669  2444.112
 670  2404.723
 671  2549.805
 672  2609.803
 673  2377.739
 674  2457.815
 675  2717.938
 676  2498.824
 677  2198.127
 678  1965.173
 679  2064.04
 680  1852.339
 681  2439.665
 682  2215.561
 683  2270.42
 684  2084.159
 685  2456.418
 686  2738.73
 687  2794.691
 688  3017.861
 689  3049.541
 690  2725.352
 691  2555.516
 692  2655.209
 693  2621.568
 694  2651.209
 695  2564.275
 696  2406.188
 697  2796.385
 698  2922.472
 699  3017.76
 700  2591.952
 701  2534.359
 702  2411.356
 703  2007.474
 704  1758.651
 705  1830.997
 706  2194.889
 707  2437.178
 708  2368.976
 709  1924.086
 710  1471.78
 711  1166.624
 712  1645.313
 713  2097.605
 714  1946.013
 715  1817.961
 716  1785.411
 717  2201.073
 718  2117.383
 719  2282.023
 720  2193.763
 721  2392.706
 722  2206.994
 723  1773.907
 724  1494.519
 725  1352.934
 726  2138.715
 727  1912.326
 728  1887.482
 729  1722.49
 730  2466.446
 731  2682.532
 732  2930.606
 733  2793.775
 734  2437.039
 735  2118.64
 736  1790.375
 737  1856.872
 738  1781.666
 739  1552.343
 740  1699.772
 741  1855.974
 742  2517.13
 743  2829.441
 744  2949.752
 745  3208.184
 746  3371.793
 747  3423.47
 748  3022.958
 749  2662.461
 750  2767.47
 751  3020.484
 752  3078.059
 753  2804.718
 754  2658.675
 755  2500.677
 756  2474.174
 757  2313.694
 758  2216.916
 759  2623.652
 760  2698.675
 761  2924.743
 762  2962.882
 763  3491.39
 764  3555.016
 765  3147.813
 766  3142.742
 767  3197.995
 768  2899.177
 769  2398.621
 770  2330.107
 771  2449.826
 772  2395.107
 773  2261.059
 774  2387.42
 775  2537.452
 776  2689.695
 777  2607.656
 778  2767.972
 779  2571.926
 780  2489.06
 781  2546.152
 782  2627.149
 783  2150.353
 784  1863.94
 785  1780.055
 786  2071.912
 787  2202.352
 788  2333.903
 789  2406.205
 790  2308.486
 791  2587.199
 792  2918.701
 793  3065.266
 794  3047.634
 795  2987.134
 796  2586.333
 797  2574.365
 798  2327.332
 799  2472.59
 800  2181.719
 801  1995.096
 802  2038.077
 803  2110.554
 804  2273.305
 805  2355.81
 806  2019.603
 807  1827.68
 808  1991.429
 809  2439.077
 810  2369.057
 811  2234.358
 812  2127.1
 813  2541.038
 814  2567.287
 815  2581.089
 816  2513.376
 817  2532.212
 818  2563.58
 819  2564.345
 820  2547.144
 821  2722.691
 822  3079.384
 823  3203.193
 824  2847.897
 825  2844.154
 826  2835.788
 827  2365.202
 828  1984.977
 829  2298.34
 830  2878.531
 831  2544.645
 832  2301.706
 833  1693.018
 834  1762.179
 835  2560.041
 836  2863.533
 837  2875.56
 838  2375.776
 839  1868.463
 840  1832.886
 841  1832.821
 842  2193.681
 843  2106.54
 844  2411.667
 845  2703.948
 846  2938.643
 847  2877.987
 848  2273.445
 849  2351.693
 850  2551.485
 851  2655.67
 852  2127.686
 853  1814.869
 854  1739.771
 855  1776.742
 856  1960.078
 857  2219.841
 858  2379.791
 859  2931.356
 860  2881.539
 861  2948.795
 862  2277.006
 863  2348.492
 864  2270.302
 865  2788.659
 866  2990.393
 867  2944.151
 868  2619.743
 869  2407.343
 870  2702.798
 871  3177.764
 872  3053.817
 873  2915.003
 874  2770.68
 875  3600.238
 876  3463.656
 877  3278.512
 878  3051.077
 879  3396.208
 880  3176.402
 881  2756.22
 882  2679.594
 883  2885.078
 884  3019.203
 885  2926.916
 886  2509.039
 887  2052.437
 888  1886.254
 889  2407.165
 890  2601.978
 891  2709.529
 892  2401.485
 893  2492.624
 894  2527.478
 895  2936.185
 896  3147.225
 897  3129.148
 898  2838.782
 899  2847.326
 900  2669.1
 901  2519.249
 902  2498.454
 903  2530.741
 904  2371.651
 905  2212.887
 906  2279.429
 907  2092.366
 908  2115.621
 909  2356.778
 910  3029.123
 911  2868.793
 912  2939.095
 913  2936.265
 914  3002.738
 915  2950.104
 916  2818.554
 917  2784.719
 918  2676.919
 919  2613.966
 920  2514.767
 921  2704.388
 922  2810.402
 923  2622.585
 924  2839.929
 925  2709.476
 926  3036.798
 927  2748.551
 928  2503.34
 929  2154.453
 930  2206.928
 931  2519.604
 932  2728.123
 933  2414.635
 934  2165.985
 935  2073.777
 936  2540.483
 937  2802.938
 938  2586.528
 939  2117.038
 940  2305.582
 941  2171.796
 942  2316.905
 943  2518.643
 944  2683.784
 945  2618.633
 946  2375.966
 947  2666.166
 948  3139.587
 949  3220.313
 950  2882.127
 951  2396.456
 952  2435.07
 953  2622.064
 954  2573.899
 955  2271.817
 956  2410.947
 957  2927.316
 958  3186.719
 959  3129.368
 960  3123.726
 961  3384.619
 962  3348.458
 963  3250.941
 964  3090.892
 965  2628.344
 966  2404.005
 967  2861.895
 968  2781.597
 969  2699.257
 970  2775.55
 971  3034.031
 972  3169.27
 973  2954.202
 974  3188.929
 975  2807.559
 976  2782.74
 977  2471.61
 978  2754.427
 979  2705.7
 980  2721.766
 981  2372.124
 982  2351.51
 983  2150.989
 984  2499.578
 985  2788.208
 986  2885.258
 987  2470.571
 988  2268.834
 989  2020.858
 990  2061.05
 991  2086.723
 992  2217.349
 993  2419.818
 994  2694.038
 995  2333.875
 996  2336.604
 997  2258.078
 998  2413.464
 999  2267.737
1000  2003.637
1001  1927.611
1002  1911.005
1003  2258.564
1004  2591.109
1005  2629.058
1006  2589.894
1007  2429.884
1008  2629.094
1009  2938.107
1010  2668.62
1011  2426.646
1012  2503.7
1013  2876.225
1014  2852.241
1015  2989.389
1016  3110.82
1017  3258.106
1018  2689.767
1019  2548.005
1020  2654.906
1021  3092.803
1022  3044.959
1023  3584.646
