# Input file       =  1211543218.108966_cleaned.dat
# Candidate        =  PSR_0332+5434
# Telescope        =  AR
# Epoch_topo       =  58266.491170242662
# Epoch_bary       =  N/A
# T_sample         =  0.002
# Data Folded      =  7340032
# Data Avg         =  0.211607295885707
# Data StdDev      =  4.53451538483503 
# Profile Bins     =  1024
# Profile Avg      =  1516.81305481774 
# Profile StdDev   =  383.910400783035 
# Reduced chi-sqr  =  0.689
# Prob(Noise)      <  1   (~0.0 sigma)
# P_topo (ms)      =  714.520699993792  +/- 0.000417
# P'_topo (s/s)    =  -0                +/- 2.2e-10
# P''_topo (s/s^2) =  0                 +/- 9.72e-14
# P_bary (ms)      =  N/A
# P'_bary (s/s)    =  N/A
# P''_bary (s/s^2) =  N/A
# P_orb (s)        =  N/A
# asin(i)/c (s)    =  N/A
# eccentricity     =  N/A
# w (rad)          =  N/A
# T_peri           =  N/A
######################################################
   0  1185.993
   1  1218.803
   2  1322.383
   3  1292.314
   4  1353.016
   5  1329.31
   6  1343.403
   7  1276.965
   8  1198.99
   9  1254.9
  10  1336.443
  11  1389.05
  12  1476.998
  13  1629.557
  14  1757.976
  15  1797.532
  16  1640.575
  17  1543.003
  18  1408.281
  19  1419.241
  20  1447.32
  21  1440.135
  22  1557.683
  23  1642.975
  24  1674.969
  25  1641.034
  26  1647.285
  27  1712.458
  28  1692.693
  29  1539.844
  30  1358.311
  31  1281.04
  32  1342.921
  33  1310.053
  34  1306.588
  35  1315.41
  36  1265.078
  37  1333.666
  38  1364.58
  39  1436.831
  40  1341.465
  41  1315.95
  42  1277.459
  43  1217.346
  44  1293.514
  45  1365.93
  46  1392.397
  47  1258.432
  48  1158.589
  49  1346.167
  50  1364.805
  51  1293.066
  52  1071.977
  53  1084.018
  54  1255.47
  55  1446.173
  56  1600.373
  57  1508.248
  58  1526.106
  59  1491.739
  60  1554.484
  61  1524.374
  62  1593.443
  63  1678.926
  64  1750.916
  65  1640.993
  66  1623.167
  67  1624.306
  68  1634.209
  69  1567.466
  70  1645.998
  71  1678.943
  72  1712.618
  73  1548.017
  74  1399.812
  75  1323.106
  76  1316.783
  77  1353.451
  78  1310.177
  79  1311.791
  80  1368.158
  81  1419.255
  82  1421.491
  83  1415.465
  84  1478.909
  85  1458.54
  86  1387.618
  87  1318.613
  88  1306.088
  89  1434.853
  90  1613.381
  91  1705.199
  92  1617.515
  93  1514.564
  94  1571.073
  95  1629.498
  96  1629.516
  97  1573.162
  98  1607.416
  99  1559.373
 100  1496.567
 101  1454.453
 102  1512.014
 103  1563.957
 104  1660.833
 105  1692.427
 106  1662.088
 107  1687.764
 108  1708.299
 109  1746.711
 110  1618.755
 111  1528.009
 112  1452.823
 113  1604.461
 114  1741.803
 115  1737.334
 116  1715.093
 117  1664.794
 118  1654.13
 119  1608.137
 120  1813.828
 121  1851.133
 122  1826.426
 123  1675.754
 124  1529.337
 125  1546.008
 126  1613.357
 127  1586.405
 128  1635.357
 129  1581.234
 130  1611.295
 131  1616.227
 132  1614.1
 133  1680.958
 134  1687.781
 135  1574.575
 136  1420.82
 137  1300.601
 138  1261.434
 139  1276.556
 140  1406.038
 141  1443.986
 142  1395.66
 143  1349.343
 144  1428.125
 145  1361.668
 146  1398.781
 147  1463.231
 148  1489.729
 149  1542.393
 150  1374.282
 151  1397.341
 152  1479.9
 153  1567.771
 154  1416.915
 155  1276.104
 156  1245.99
 157  1235.896
 158  1230.353
 159  1260.379
 160  1351.428
 161  1342.897
 162  1349.375
 163  1444.327
 164  1520.84
 165  1474.72
 166  1349.474
 167  1299.853
 168  1433.53
 169  1553.08
 170  1569.28
 171  1488.602
 172  1527.946
 173  1623.396
 174  1617.903
 175  1556.338
 176  1490.018
 177  1494.26
 178  1508.979
 179  1609.416
 180  1699.684
 181  1564.706
 182  1483.204
 183  1525.205
 184  1682.793
 185  1662.519
 186  1594.862
 187  1591.062
 188  1604.433
 189  1429.067
 190  1393.678
 191  1391.003
 192  1452.657
 193  1462.009
 194  1473.409
 195  1476.331
 196  1399.731
 197  1426.572
 198  1467.728
 199  1460.213
 200  1336.84
 201  1404.455
 202  1433.626
 203  1498.784
 204  1410.37
 205  1402.58
 206  1550.807
 207  1539.914
 208  1458.086
 209  1379.096
 210  1527.669
 211  1530.947
 212  1455.172
 213  1369.729
 214  1447.936
 215  1521.681
 216  1502.651
 217  1531.972
 218  1485.527
 219  1429.497
 220  1472.296
 221  1466.077
 222  1516.667
 223  1537.626
 224  1581.796
 225  1473.5
 226  1381.453
 227  1446.808
 228  1540.966
 229  1541.4
 230  1411.183
 231  1409.948
 232  1468.176
 233  1615.077
 234  1679.366
 235  1683.433
 236  1606.324
 237  1407.833
 238  1327.495
 239  1354.984
 240  1384.599
 241  1349.043
 242  1353.225
 243  1358.891
 244  1399.163
 245  1438.343
 246  1406.953
 247  1327.724
 248  1348.818
 249  1363.721
 250  1358.357
 251  1263.924
 252  1204.54
 253  1332.82
 254  1514.981
 255  1609.5
 256  1662.817
 257  1666.977
 258  1604.364
 259  1435.723
 260  1385.71
 261  1494.749
 262  1415.678
 263  1339.318
 264  1455.578
 265  1609.916
 266  1671.854
 267  1506.714
 268  1470.925
 269  1443.892
 270  1416.714
 271  1503.125
 272  1535.113
 273  1519.006
 274  1481.136
 275  1552.106
 276  1556.303
 277  1597.193
 278  1601.147
 279  1490.493
 280  1410.031
 281  1495.046
 282  1672.619
 283  1734.738
 284  1777.115
 285  1783.322
 286  1757.653
 287  1749.362
 288  1778.957
 289  1714.445
 290  1653.523
 291  1555.852
 292  1441.501
 293  1419.216
 294  1402.452
 295  1438.848
 296  1535.818
 297  1513.291
 298  1487.754
 299  1374.917
 300  1371.936
 301  1497.944
 302  1610.006
 303  1642.098
 304  1560.624
 305  1534.209
 306  1479.96
 307  1536.028
 308  1457.246
 309  1455.386
 310  1358.77
 311  1360.161
 312  1396.298
 313  1392.015
 314  1390.515
 315  1320.407
 316  1280.611
 317  1265.02
 318  1393.146
 319  1398.958
 320  1371.829
 321  1201.316
 322  1219.295
 323  1281.297
 324  1368.233
 325  1369.5
 326  1379.733
 327  1296.042
 328  1235.472
 329  1254.615
 330  1251.241
 331  1157.727
 332  979.6385
 333  1037.691
 334  1167.933
 335  1220.459
 336  1204.425
 337  1226.514
 338  1303.309
 339  1273.391
 340  1197.51
 341  1152.503
 342  1384.951
 343  1470.55
 344  1499.243
 345  1481.624
 346  1481.544
 347  1471.045
 348  1480.537
 349  1530.46
 350  1561.255
 351  1512.568
 352  1446.685
 353  1339.515
 354  1490.02
 355  1716.502
 356  1773.554
 357  1684.737
 358  1558.953
 359  1446.008
 360  1411.518
 361  1489.466
 362  1523.859
 363  1490.232
 364  1469.709
 365  1383.302
 366  1398.792
 367  1475.727
 368  1653.099
 369  1707.023
 370  1548.254
 371  1437.164
 372  1330.214
 373  1342.52
 374  1295.768
 375  1356.197
 376  1520.21
 377  1672.493
 378  1582.944
 379  1398.8
 380  1308.61
 381  1464.281
 382  1522.936
 383  1569.33
 384  1407.098
 385  1336.712
 386  1410.959
 387  1524.662
 388  1514.213
 389  1316.733
 390  1335.196
 391  1482.267
 392  1492.381
 393  1517.534
 394  1517.864
 395  1551.896
 396  1462.792
 397  1486.17
 398  1489.5
 399  1521.65
 400  1468.381
 401  1422.013
 402  1416.145
 403  1426.526
 404  1529.832
 405  1429.503
 406  1323.509
 407  1284.602
 408  1557.203
 409  1651.358
 410  1667.209
 411  1473.273
 412  1440.672
 413  1486.321
 414  1555.097
 415  1663.644
 416  1710.24
 417  1726.912
 418  1765.968
 419  1732.579
 420  1835.902
 421  1759.675
 422  1671.187
 423  1494.686
 424  1572.124
 425  1658.261
 426  1570.612
 427  1606.495
 428  1645.584
 429  1711.966
 430  1732.62
 431  1727.426
 432  1746.494
 433  1720.981
 434  1840.849
 435  1885.484
 436  1771.646
 437  1684.327
 438  1696.489
 439  1735.839
 440  1709.419
 441  1729.103
 442  1730.702
 443  1752.822
 444  1851.414
 445  1872.501
 446  1866.817
 447  1754.174
 448  1731.999
 449  1641.085
 450  1588.948
 451  1612.453
 452  1684.534
 453  1795.485
 454  1829.36
 455  1804.864
 456  1726.895
 457  1654.203
 458  1636.144
 459  1638.175
 460  1614.814
 461  1521.322
 462  1510.4
 463  1605.174
 464  1669.461
 465  1630.87
 466  1557.989
 467  1520.93
 468  1545.841
 469  1466.603
 470  1441.613
 471  1390.401
 472  1363.019
 473  1363.276
 474  1354.011
 475  1598.616
 476  1622.742
 477  1650.007
 478  1581.235
 479  1558.784
 480  1610.913
 481  1608.678
 482  1653.555
 483  1619.034
 484  1592.421
 485  1632.469
 486  1646.943
 487  1660.892
 488  1579.697
 489  1532.916
 490  1533.145
 491  1679.124
 492  1766.784
 493  1787.451
 494  1715.484
 495  1662.244
 496  1633.639
 497  1553.885
 498  1608.705
 499  1683.946
 500  1732.204
 501  1733.116
 502  1734.134
 503  1623.304
 504  1521.573
 505  1565.392
 506  1613.58
 507  1725.689
 508  1684.164
 509  1751.946
 510  1676.962
 511  1613.754
 512  1626.167
 513  1715.829
 514  1777.373
 515  1776.049
 516  1706.691
 517  1629.516
 518  1651.089
 519  1641.365
 520  1572.37
 521  1594.884
 522  1693.005
 523  1756.643
 524  1700.09
 525  1630.158
 526  1727.397
 527  1772.388
 528  1842.139
 529  1802.546
 530  1656.982
 531  1495.776
 532  1536.798
 533  1648.437
 534  1822.128
 535  1770.405
 536  1625.527
 537  1494.052
 538  1444.443
 539  1361.012
 540  1387.058
 541  1494.019
 542  1561.795
 543  1577.451
 544  1592.938
 545  1565.407
 546  1512.691
 547  1453.076
 548  1422.013
 549  1391.647
 550  1389.845
 551  1485.209
 552  1409.822
 553  1262.617
 554  1261.064
 555  1314.829
 556  1323.298
 557  1257.23
 558  1282.631
 559  1257.876
 560  1269.107
 561  1283.498
 562  1347.065
 563  1321.561
 564  1292.017
 565  1340.315
 566  1358.797
 567  1437.91
 568  1433.765
 569  1368.715
 570  1387.866
 571  1526.072
 572  1631.829
 573  1598.563
 574  1460.138
 575  1351.374
 576  1251.227
 577  1206.865
 578  1223.263
 579  1133.8
 580  1162.484
 581  1123.517
 582  1278.299
 583  1419.81
 584  1581.883
 585  1598.304
 586  1541.779
 587  1501.673
 588  1590.382
 589  1529.154
 590  1610.697
 591  1595.554
 592  1805.34
 593  1926.736
 594  1953.724
 595  1964.49
 596  2135.94
 597  2393.44
 598  2552.427
 599  2539.87
 600  2457.431
 601  2260.658
 602  2108.334
 603  1913.042
 604  1789
 605  1729.597
 606  1740.669
 607  1765.386
 608  1769.47
 609  1788.534
 610  1689.995
 611  1641.305
 612  1559.248
 613  1691.323
 614  1657.494
 615  1645.461
 616  1591.231
 617  1709.968
 618  1716.21
 619  1544.203
 620  1457.427
 621  1472.083
 622  1534.593
 623  1571.272
 624  1644.898
 625  1720.149
 626  1730.591
 627  1643.596
 628  1593.78
 629  1514.872
 630  1468.275
 631  1576.248
 632  1555.642
 633  1519.638
 634  1470.66
 635  1483.98
 636  1405.618
 637  1401.931
 638  1334.501
 639  1364.124
 640  1293.328
 641  1217.412
 642  1148.461
 643  1170.521
 644  1227.943
 645  1327.785
 646  1430.228
 647  1454.967
 648  1327.056
 649  1157.657
 650  1226.182
 651  1211.281
 652  1230.965
 653  1279.937
 654  1460.254
 655  1522.979
 656  1465.024
 657  1357.036
 658  1242.663
 659  1290.644
 660  1403.387
 661  1562.176
 662  1498.818
 663  1501.912
 664  1475.892
 665  1611.818
 666  1708.886
 667  1799.583
 668  1697.055
 669  1623.69
 670  1638.859
 671  1647.797
 672  1589.85
 673  1610.96
 674  1599.342
 675  1718.886
 676  1766.352
 677  1820.727
 678  1711.702
 679  1535.516
 680  1553.36
 681  1577.476
 682  1591.36
 683  1698.77
 684  1748.714
 685  1668.792
 686  1544.676
 687  1600.271
 688  1615.031
 689  1658.545
 690  1744.1
 691  1762.723
 692  1668.79
 693  1567.604
 694  1619.915
 695  1715.507
 696  1767.345
 697  1697.627
 698  1682.994
 699  1716.712
 700  1771.236
 701  1747.829
 702  1733.647
 703  1673.161
 704  1660.787
 705  1735.525
 706  1787.08
 707  1825.094
 708  1803.596
 709  1795.356
 710  1824.624
 711  1853.699
 712  1799.599
 713  1683.237
 714  1477.792
 715  1492.644
 716  1389.422
 717  1379.363
 718  1494.8
 719  1613.04
 720  1686.872
 721  1624.929
 722  1669.675
 723  1730.322
 724  1747.356
 725  1766.268
 726  1763.863
 727  1803.687
 728  1746.73
 729  1757.57
 730  1583.423
 731  1425.638
 732  1412.64
 733  1426.793
 734  1471.286
 735  1479.042
 736  1457.348
 737  1577.115
 738  1603.733
 739  1596.106
 740  1477.274
 741  1355.682
 742  1337.243
 743  1363.638
 744  1596.126
 745  1636.647
 746  1658.023
 747  1535.963
 748  1428.233
 749  1391.959
 750  1507.118
 751  1701.006
 752  1706.52
 753  1667.587
 754  1542.067
 755  1374.279
 756  1344.539
 757  1419.97
 758  1433.151
 759  1374.466
 760  1372.683
 761  1546.729
 762  1523.431
 763  1527.845
 764  1411.924
 765  1357.665
 766  1310.153
 767  1264.781
 768  1387.767
 769  1488.683
 770  1563.051
 771  1480.825
 772  1393.191
 773  1313.844
 774  1387.322
 775  1496.383
 776  1592.53
 777  1722.565
 778  1829.16
 779  1855.616
 780  1677.101
 781  1564.274
 782  1490.837
 783  1368.665
 784  1384.746
 785  1448.659
 786  1588.027
 787  1664.31
 788  1715.075
 789  1723.397
 790  1716.645
 791  1601.823
 792  1616.237
 793  1618.621
 794  1723.477
 795  1581.687
 796  1551.759
 797  1532.069
 798  1491.838
 799  1466.186
 800  1283.999
 801  1403.619
 802  1412.748
 803  1367.451
 804  1277.482
 805  1357.51
 806  1496.991
 807  1534.367
 808  1571.827
 809  1414.039
 810  1289.021
 811  1336.804
 812  1369.952
 813  1350.33
 814  1377.717
 815  1556.092
 816  1553.394
 817  1540.848
 818  1548.387
 819  1592.049
 820  1673.927
 821  1585.526
 822  1552.02
 823  1490.604
 824  1438.112
 825  1450.816
 826  1535.975
 827  1552.883
 828  1582.592
 829  1617.207
 830  1692.666
 831  1694.779
 832  1596.844
 833  1647.112
 834  1747.085
 835  1814.754
 836  1845.716
 837  1930.067
 838  1939.063
 839  1795.581
 840  1687.595
 841  1663.163
 842  1569.744
 843  1614.596
 844  1576.432
 845  1517.344
 846  1367.124
 847  1443.563
 848  1628.811
 849  1892.268
 850  1880.734
 851  1724.804
 852  1601.795
 853  1584.844
 854  1649.894
 855  1651.73
 856  1703.651
 857  1674.628
 858  1712.882
 859  1726.148
 860  1766.207
 861  1842.156
 862  1750.359
 863  1605.606
 864  1552.265
 865  1507.205
 866  1438.978
 867  1356.857
 868  1403.698
 869  1374.661
 870  1376.122
 871  1499.029
 872  1582.95
 873  1605.033
 874  1566.355
 875  1585.45
 876  1573.656
 877  1512.396
 878  1589.648
 879  1553.493
 880  1564.514
 881  1437.96
 882  1448.699
 883  1540.866
 884  1544.473
 885  1464.679
 886  1444.985
 887  1547.788
 888  1511.786
 889  1488.562
 890  1465.717
 891  1490.091
 892  1464.335
 893  1498.855
 894  1466.774
 895  1442.402
 896  1313.936
 897  1203.204
 898  1158.688
 899  1284.654
 900  1336.43
 901  1274.016
 902  1254.68
 903  1427.759
 904  1468.849
 905  1475.862
 906  1433.731
 907  1503.004
 908  1503.387
 909  1462.648
 910  1537.653
 911  1673.026
 912  1684.557
 913  1630.854
 914  1442.721
 915  1422.154
 916  1359.095
 917  1537.727
 918  1668.164
 919  1809.26
 920  1746.519
 921  1561.969
 922  1437
 923  1374.501
 924  1314.69
 925  1306.9
 926  1283.45
 927  1352.561
 928  1393.366
 929  1472.054
 930  1454.506
 931  1414.243
 932  1306.03
 933  1407.544
 934  1409.771
 935  1497.515
 936  1488.528
 937  1542.913
 938  1483.099
 939  1384.244
 940  1312.302
 941  1346.448
 942  1362.876
 943  1392.01
 944  1284.563
 945  1219.563
 946  1173.364
 947  1353.924
 948  1452.15
 949  1474.74
 950  1382.861
 951  1395.34
 952  1447.568
 953  1439.33
 954  1559.517
 955  1562.037
 956  1484.638
 957  1390.22
 958  1381.048
 959  1469.678
 960  1465.905
 961  1510.099
 962  1568.012
 963  1599.605
 964  1534.093
 965  1432.833
 966  1434.451
 967  1438.917
 968  1463.703
 969  1436.719
 970  1467.042
 971  1496.676
 972  1526.499
 973  1526.254
 974  1460.203
 975  1412.938
 976  1412.067
 977  1451.985
 978  1443.131
 979  1565.446
 980  1530.365
 981  1520.782
 982  1416.43
 983  1485.363
 984  1453.756
 985  1474.934
 986  1536.521
 987  1398.797
 988  1185.903
 989  1096.393
 990  1279.717
 991  1470.221
 992  1516.005
 993  1499.162
 994  1389.66
 995  1442.463
 996  1445.935
 997  1509.22
 998  1522.69
 999  1457.75
1000  1303.294
1001  1246.965
1002  1253.667
1003  1261.085
1004  1203.147
1005  1276.645
1006  1200.761
1007  1233.506
1008  1213.999
1009  1256.17
1010  1258.671
1011  1404.145
1012  1474.832
1013  1472.314
1014  1453.181
1015  1391.947
1016  1451.8
1017  1432.708
1018  1382.84
1019  1255.557
1020  1265.839
1021  1324.167
1022  1356.516
1023  1226.582
