# Input file       =  1211255245.100422_cleaned.dat
# Candidate        =  PSR_0332+5434
# Telescope        =  AR
# Epoch_topo       =  58263.158149310439
# Epoch_bary       =  N/A
# T_sample         =  0.002
# Data Folded      =  7143424
# Data Avg         =  0.262042721085155
# Data StdDev      =  7.11583550706083 
# Profile Bins     =  1024
# Profile Avg      =  1827.35763383993 
# Profile StdDev   =  594.332030085632 
# Reduced chi-sqr  =  0.858
# Prob(Noise)      <  1   (~0.0 sigma)
# P_topo (ms)      =  714.523614345895  +/- 5.83e-05
# P'_topo (s/s)    =  -0                +/- 3.16e-11
# P''_topo (s/s^2) =  0                 +/- 1.43e-14
# P_bary (ms)      =  N/A
# P'_bary (s/s)    =  N/A
# P''_bary (s/s^2) =  N/A
# P_orb (s)        =  N/A
# asin(i)/c (s)    =  N/A
# eccentricity     =  N/A
# w (rad)          =  N/A
# T_peri           =  N/A
######################################################
   0  1781.226
   1  1811.551
   2  1934.749
   3  1916.113
   4  1910.661
   5  1726.453
   6  1931.236
   7  1735.377
   8  1673.162
   9  1593.74
  10  1785.293
  11  2072.396
  12  1872.578
  13  1733.843
  14  1576.445
  15  1874.68
  16  2023.776
  17  1952.832
  18  1881.507
  19  1815.684
  20  1916.434
  21  1974.599
  22  1868.503
  23  1756.053
  24  1656.555
  25  1742.593
  26  1629.401
  27  1599.72
  28  1421.573
  29  1796.103
  30  1714.466
  31  1912.208
  32  1769.279
  33  1768.371
  34  1721.111
  35  1628.359
  36  1764.405
  37  1633.472
  38  1614.76
  39  1601.899
  40  1538.979
  41  1554.105
  42  1373.68
  43  1436.409
  44  1403.504
  45  1623.521
  46  1883.66
  47  1997.11
  48  2121.898
  49  2195.695
  50  2367.27
  51  2100.853
  52  2126.823
  53  2097.226
  54  2182.691
  55  1911.665
  56  1678.162
  57  1598.549
  58  1607.835
  59  1680.798
  60  1598.892
  61  1495.887
  62  1332.642
  63  1141.083
  64  1357.377
  65  1202.85
  66  1224.273
  67  904.5411
  68  1127.625
  69  1390.734
  70  1921.871
  71  2207.27
  72  2013.214
  73  1790.115
  74  1655.207
  75  1404.907
  76  1314.526
  77  1372.513
  78  1309.504
  79  1343.148
  80  1402.275
  81  1753.075
  82  2036.24
  83  2198.575
  84  2235.452
  85  1999.636
  86  2013.571
  87  1863.01
  88  1666.459
  89  1579.701
  90  1423.943
  91  1651.899
  92  1866.778
  93  2141.803
  94  1973.889
  95  1862.131
  96  1950.534
  97  1910.97
  98  1711.317
  99  1729.012
 100  1850.476
 101  2198.108
 102  2170.822
 103  2031.926
 104  1832.285
 105  1681.004
 106  1565.657
 107  1772.421
 108  1771.098
 109  1913.182
 110  1824.702
 111  1697.403
 112  1503.325
 113  1465.489
 114  1768.97
 115  2068.168
 116  2222.803
 117  2403.761
 118  2269.076
 119  2303.922
 120  1974.019
 121  1940.273
 122  1903.278
 123  2076.496
 124  1929.342
 125  1821.267
 126  1938.798
 127  2010.411
 128  1847.165
 129  1752.882
 130  1870.117
 131  1899.559
 132  1743.078
 133  1974.174
 134  1964.919
 135  1950.829
 136  1769.721
 137  1689.679
 138  1573.527
 139  1591.055
 140  1797.673
 141  1735.963
 142  1573.375
 143  1505.365
 144  1821.992
 145  1963.907
 146  1792.385
 147  1471.232
 148  1592.798
 149  1827.254
 150  2014.638
 151  2203.625
 152  2266.516
 153  2112.087
 154  2047.226
 155  2148.534
 156  2214.196
 157  1753.728
 158  1551.317
 159  1529.771
 160  1612.204
 161  1461.589
 162  1614.226
 163  1948.214
 164  2100.413
 165  2025.874
 166  2073.936
 167  2122.501
 168  1939.452
 169  1823.177
 170  1740.295
 171  1582.006
 172  1379.953
 173  1306.506
 174  1493.677
 175  1687.84
 176  1625.354
 177  1687.113
 178  1663.494
 179  1490.556
 180  1618.233
 181  1715.24
 182  1867.533
 183  1724.569
 184  1681.897
 185  1840.573
 186  1911.471
 187  1823.859
 188  1447.874
 189  1191.069
 190  1214.964
 191  1310.391
 192  1436.548
 193  1249.01
 194  1163.632
 195  1212.667
 196  1118.758
 197  1452.332
 198  1427.818
 199  1676.004
 200  1671.941
 201  1868.253
 202  1774.291
 203  1499.608
 204  1394.532
 205  1557.478
 206  1387.031
 207  1122.469
 208  1226.489
 209  1386.941
 210  1356.594
 211  1224.825
 212  1294.673
 213  1454.261
 214  1420.902
 215  1455.971
 216  1447.293
 217  1319.523
 218  1115.897
 219  1361.081
 220  1470.873
 221  1520.967
 222  1464.091
 223  1716.619
 224  1865.508
 225  1861.609
 226  1858.233
 227  1707.385
 228  1678.862
 229  1484.821
 230  1416.501
 231  1296.185
 232  1268.106
 233  1128.65
 234  1141.693
 235  1297.652
 236  1467.933
 237  1539.127
 238  1584.031
 239  1473.111
 240  1635.058
 241  1833.675
 242  2185.609
 243  1936.72
 244  1713.964
 245  1432.643
 246  1390.276
 247  1431.209
 248  1627.123
 249  1886.083
 250  2102.155
 251  1931.929
 252  1831.573
 253  1961.615
 254  2142.33
 255  2142.366
 256  1829.351
 257  1723.418
 258  1705.384
 259  1506.923
 260  1541.159
 261  1327.529
 262  1444.175
 263  1350.061
 264  1568.924
 265  1810.316
 266  1825.776
 267  1813.983
 268  1683.186
 269  1700.43
 270  1768.882
 271  1692.415
 272  1711.316
 273  1774.524
 274  1778.044
 275  1816.332
 276  1653.502
 277  1614.142
 278  1506.123
 279  1402.242
 280  1771.852
 281  2047.958
 282  2304.71
 283  2415.005
 284  2250.722
 285  2126.211
 286  1670.58
 287  1614.572
 288  1781.112
 289  1959.337
 290  1918.865
 291  1734.625
 292  1655.415
 293  1791.118
 294  1836.047
 295  1824.791
 296  1733.258
 297  1549.658
 298  1709.501
 299  2181.49
 300  2484.153
 301  2389.184
 302  1934.921
 303  1848.394
 304  1722.914
 305  1476.663
 306  1484.761
 307  1411.672
 308  1504.022
 309  1400.543
 310  1734.313
 311  1886.686
 312  1796.789
 313  1978.65
 314  2392.989
 315  2458.552
 316  2142.269
 317  1993.13
 318  2165.23
 319  1976.793
 320  1741.231
 321  1948.721
 322  2173.378
 323  2069.28
 324  1783.408
 325  1886.955
 326  2006.369
 327  1811.696
 328  1813.467
 329  1825.867
 330  1832.56
 331  1552.649
 332  1679.347
 333  1989.904
 334  2142.752
 335  2022.182
 336  1942.29
 337  1884.908
 338  2081.355
 339  2349.638
 340  2420.595
 341  2344.549
 342  2180.803
 343  2271.592
 344  2323.122
 345  2529.535
 346  2639.782
 347  2717.405
 348  2753.372
 349  2440.814
 350  2266.725
 351  2305.822
 352  2434.34
 353  2236.409
 354  2011.981
 355  2060.973
 356  2479.541
 357  2600.199
 358  2543.406
 359  2164.788
 360  1911.486
 361  1626.004
 362  1578.412
 363  1843.985
 364  1958.914
 365  2043.646
 366  2212.526
 367  2187.773
 368  1848.436
 369  1654.52
 370  1812.602
 371  2007.41
 372  2060.59
 373  1867.304
 374  1730.943
 375  1730.203
 376  1755.725
 377  1853.888
 378  1932.654
 379  2187.138
 380  2185.287
 381  2234.577
 382  2316.361
 383  2307.391
 384  2226.467
 385  2141.802
 386  2082.844
 387  1916.62
 388  1848.398
 389  2226.642
 390  2326.24
 391  2218.348
 392  1807.076
 393  1800.745
 394  1934.006
 395  1928.412
 396  1708.274
 397  1601.323
 398  1601.084
 399  1697.72
 400  1627.921
 401  1844.63
 402  1823.097
 403  1815.334
 404  1667.677
 405  1737.548
 406  1782.198
 407  1722.142
 408  1770.805
 409  1623.005
 410  1477.536
 411  1437.379
 412  1899.532
 413  2482.351
 414  2580.674
 415  2317.664
 416  2299.893
 417  2430.871
 418  2351.717
 419  2224.059
 420  1992.296
 421  1874.533
 422  1802.66
 423  2089.2
 424  2147.749
 425  1899.043
 426  1725.548
 427  1700.054
 428  2011.515
 429  2216.936
 430  2295.307
 431  2300.578
 432  2162.827
 433  2094.057
 434  2085.914
 435  2210.82
 436  2317.35
 437  1995.275
 438  1825.297
 439  1572.712
 440  1450.076
 441  1460.088
 442  1573.519
 443  1575.092
 444  1543.031
 445  1524.922
 446  1790.29
 447  1917.397
 448  1968.387
 449  1778.248
 450  1736.88
 451  1872.615
 452  1654.005
 453  1614.32
 454  1708.727
 455  1957.46
 456  1893.829
 457  1777.67
 458  1640.303
 459  1726.826
 460  1666.863
 461  1835.965
 462  1974.523
 463  2187.866
 464  2233.167
 465  2392.275
 466  2415.196
 467  2159.313
 468  2069.307
 469  1762.536
 470  1501.86
 471  1113.585
 472  1536.82
 473  1880.359
 474  1882.476
 475  1565.815
 476  1829.264
 477  2098.663
 478  2490.472
 479  2500.765
 480  2500.315
 481  2116.619
 482  1763.314
 483  1835.382
 484  1990.349
 485  1812.042
 486  1534.833
 487  1565.715
 488  2040.078
 489  1998.291
 490  1891.944
 491  2012.263
 492  1966.91
 493  1700.295
 494  1453.937
 495  1688.59
 496  2068.403
 497  1953.811
 498  1943.139
 499  1875.848
 500  2069.34
 501  2053.774
 502  2092.633
 503  1875.221
 504  1960.592
 505  1797.082
 506  1796.77
 507  1690.623
 508  1534.062
 509  1600.617
 510  1862.95
 511  2199.647
 512  2390.139
 513  2348.976
 514  2427.57
 515  2550.115
 516  2742.299
 517  2479.054
 518  1910.029
 519  1610.886
 520  1384.808
 521  1562.172
 522  1584.198
 523  1790.599
 524  1481.03
 525  1450.423
 526  1558.01
 527  1932.059
 528  1977.744
 529  1889.753
 530  1897.746
 531  1734.878
 532  1697.196
 533  1719.329
 534  1877.98
 535  1766.754
 536  1479.628
 537  1598.587
 538  1680.941
 539  1842.43
 540  1698.756
 541  1454.245
 542  1371.526
 543  1207.177
 544  1495.316
 545  1799.178
 546  2120.188
 547  2130.748
 548  2115.555
 549  2226.239
 550  2158.312
 551  2090.302
 552  1884.987
 553  1847.888
 554  1880.99
 555  1990.634
 556  2023.343
 557  1802.297
 558  1684.342
 559  1598.241
 560  1719.006
 561  1895.454
 562  1833.131
 563  1952.414
 564  2063.029
 565  2075.141
 566  1953.93
 567  1875.304
 568  1892.942
 569  1688.905
 570  1381.975
 571  1607.739
 572  1656.998
 573  1559.166
 574  1627.294
 575  1727.965
 576  2014.708
 577  1788.796
 578  1860.558
 579  1942.228
 580  2017.523
 581  2101.81
 582  2252.594
 583  2271.376
 584  1912.512
 585  1800.682
 586  1802.699
 587  1779.357
 588  1614.036
 589  1644.705
 590  1630.598
 591  1525.889
 592  1641.633
 593  1898.403
 594  2337.796
 595  2524.972
 596  2873.837
 597  3002.86
 598  3017.623
 599  2757.668
 600  2678.223
 601  2443.28
 602  2417.598
 603  1976.356
 604  1927.144
 605  1775.049
 606  1825.349
 607  1690.566
 608  1947.294
 609  2386.789
 610  2774.245
 611  2699.661
 612  2506.994
 613  2286.758
 614  2003.306
 615  1711.181
 616  1627.495
 617  1902.54
 618  2076.873
 619  2129.062
 620  2158.606
 621  2281.096
 622  2220.666
 623  2209.307
 624  2051.483
 625  1844.787
 626  1430.148
 627  1520.966
 628  1758.424
 629  2057.12
 630  1907.569
 631  1876.531
 632  1976.838
 633  1845.831
 634  1854.712
 635  1798.424
 636  1805.326
 637  1528.572
 638  1520.845
 639  1598.333
 640  1397.37
 641  1395.427
 642  1615.771
 643  1919.875
 644  2067.245
 645  2018.482
 646  2354.957
 647  2522.459
 648  2651.472
 649  2648.288
 650  2557.5
 651  2324.302
 652  2259.219
 653  2169.562
 654  2112.728
 655  1876.271
 656  1892.074
 657  2017.3
 658  1947.718
 659  1992.967
 660  2248.602
 661  2355.363
 662  2089.725
 663  1960.766
 664  1999.954
 665  1805.744
 666  1669.109
 667  1639.713
 668  1696.501
 669  1706.167
 670  1747.287
 671  1979.141
 672  1867.519
 673  1664.672
 674  1455.782
 675  1612.885
 676  1780.025
 677  1880.008
 678  1927.515
 679  2058.921
 680  2041.722
 681  2026.442
 682  1794.78
 683  1599.006
 684  1666.995
 685  1844.247
 686  1832.821
 687  1704.333
 688  1622.362
 689  1723.581
 690  1739.517
 691  1609.103
 692  1496.972
 693  1679.534
 694  1823.312
 695  1797.41
 696  1859.393
 697  2069.376
 698  2063.333
 699  1763.707
 700  1610.512
 701  1601.529
 702  1838.371
 703  1834.247
 704  1849.173
 705  1808.92
 706  1940.749
 707  1995.767
 708  1870.059
 709  1782.46
 710  1842.267
 711  2049.443
 712  2039.232
 713  2007.431
 714  1938.811
 715  1873.359
 716  1860.74
 717  1753.457
 718  1840.608
 719  1707.397
 720  1871.233
 721  1746.833
 722  1581.594
 723  1250.911
 724  1436.89
 725  1689.871
 726  1678.165
 727  1701.033
 728  1736.319
 729  2035.526
 730  1874.989
 731  1999.559
 732  1883.626
 733  1728.897
 734  1451.309
 735  1177.192
 736  1266.592
 737  1393.81
 738  1654.447
 739  1852.665
 740  1917.216
 741  1851.114
 742  1755.493
 743  2118.014
 744  2301.731
 745  2206.498
 746  1938.819
 747  1716.036
 748  1638.221
 749  1375.059
 750  1469.261
 751  1496.739
 752  1863.741
 753  1653.939
 754  1862.977
 755  1871.272
 756  2005.521
 757  1740.053
 758  1562.24
 759  1633.721
 760  1562.422
 761  1532.45
 762  1649.104
 763  1774.828
 764  2006.257
 765  1790.356
 766  1752.923
 767  1767.604
 768  1761.718
 769  1647.356
 770  1635.188
 771  1588.557
 772  1400.246
 773  1453.139
 774  1514.05
 775  1851.19
 776  1819.995
 777  2190.347
 778  2389.977
 779  2308.565
 780  2062.385
 781  1600.629
 782  1486.001
 783  1353.388
 784  1354.913
 785  1326.158
 786  1525.782
 787  1770.276
 788  1889.426
 789  1873.663
 790  1838.385
 791  1811.161
 792  1802.835
 793  1980.296
 794  2134.227
 795  2017.427
 796  1837.345
 797  1692.04
 798  1677.052
 799  1544.563
 800  1641.256
 801  1810.735
 802  1881.667
 803  1955.429
 804  1924.195
 805  2104.087
 806  1787.352
 807  1587.103
 808  1704.525
 809  1932.816
 810  2185.182
 811  2064.818
 812  2139.288
 813  1992.411
 814  2095.966
 815  2162.454
 816  1941.618
 817  1806.861
 818  1489.259
 819  1724.395
 820  1595.11
 821  1510.08
 822  1287.632
 823  1436.593
 824  1746.183
 825  1924.42
 826  2009.74
 827  2194.089
 828  2190.35
 829  2076.359
 830  2006.225
 831  1869.511
 832  1548.295
 833  1366.841
 834  1450.123
 835  1770.688
 836  1742.097
 837  2037.911
 838  2052.333
 839  2029.577
 840  2007.855
 841  2048.3
 842  2284.209
 843  2192.909
 844  2037.709
 845  1886.447
 846  2024.866
 847  2245.239
 848  2299.838
 849  2326.09
 850  2361.505
 851  2311.1
 852  2167.412
 853  2063.504
 854  1887.265
 855  1631.25
 856  1349.7
 857  1407.518
 858  1691.287
 859  1883.982
 860  2273.007
 861  2328.068
 862  2455.351
 863  2230.464
 864  2022.027
 865  1998.746
 866  1874.454
 867  1708.422
 868  1495.717
 869  1524.88
 870  1575.406
 871  1701.303
 872  1913.11
 873  1855.432
 874  1857.622
 875  1992.763
 876  2299.474
 877  2411.41
 878  2184.308
 879  1915.468
 880  1699.646
 881  1586.737
 882  1560.241
 883  1699.001
 884  2046.208
 885  2204.798
 886  2359.379
 887  2309.698
 888  2260.841
 889  2067.857
 890  1957.585
 891  1878.973
 892  1754.064
 893  1736.979
 894  1694.926
 895  1915.206
 896  1683.206
 897  1721.632
 898  1757.663
 899  1949.777
 900  1774.374
 901  1625.241
 902  1704.363
 903  1478.337
 904  1400.715
 905  1189.455
 906  1383.46
 907  1507.12
 908  1902.992
 909  1959.145
 910  2230.017
 911  2144.542
 912  2123.167
 913  1813.524
 914  1628.428
 915  1566.786
 916  1768.514
 917  1891.014
 918  1708.906
 919  1478.691
 920  1437.549
 921  1493.221
 922  1645.815
 923  1680.417
 924  1802.289
 925  1622.135
 926  1584.216
 927  1727.479
 928  1890.651
 929  1856.449
 930  1603.767
 931  1538.855
 932  1431.704
 933  1231.839
 934  1267.299
 935  1222.313
 936  1303.895
 937  1153.064
 938  1241.086
 939  1469.25
 940  1495.035
 941  1541
 942  1508.336
 943  1825.464
 944  1969.163
 945  2024.818
 946  1825.861
 947  1889.526
 948  1865.601
 949  1865.338
 950  1684.832
 951  1615.258
 952  1618.19
 953  1539.973
 954  1368.976
 955  1326.652
 956  1447.826
 957  1586.284
 958  1725.42
 959  1807.375
 960  1875.692
 961  2062.157
 962  1908.503
 963  1721.524
 964  1374.794
 965  1439.715
 966  1580.656
 967  1650.513
 968  1722.16
 969  1595.547
 970  1722.315
 971  1757.142
 972  1750.339
 973  1920.982
 974  1916.529
 975  2093.403
 976  1859.546
 977  1899.049
 978  1713.263
 979  1513.872
 980  1462.028
 981  1607.919
 982  1821.268
 983  1903.971
 984  1919.564
 985  1818.84
 986  1665.078
 987  1499.514
 988  1431.878
 989  1402.832
 990  1320.497
 991  1565.844
 992  1627.605
 993  1949.365
 994  1818.077
 995  1864.846
 996  1864.279
 997  1741.195
 998  1710.624
 999  1821.806
1000  1917.414
1001  1620.91
1002  1428.347
1003  1486.922
1004  1590.26
1005  1782.635
1006  1785.992
1007  2014.759
1008  1975.309
1009  2161.874
1010  2227.634
1011  2290.983
1012  1974.81
1013  1592.246
1014  1765.866
1015  1845.465
1016  2095.668
1017  1949.615
1018  1981.705
1019  1740.157
1020  1645.531
1021  1610.787
1022  1715.192
1023  1739.65
