# Input file       =  1211030064.097827_cleaned.dat
# Candidate        =  PSR_0332+5434
# Telescope        =  AR
# Epoch_topo       =  58260.551887706330
# Epoch_bary       =  N/A
# T_sample         =  0.002
# Data Folded      =  7340032
# Data Avg         =  0.754978484060429
# Data StdDev      =  6.22952073160826 
# Profile Bins     =  512
# Profile Avg      =  10823.5580348435 
# Profile StdDev   =  745.879432367471 
# Reduced chi-sqr  =  1.286
# Prob(Noise)      <  1.24e-05   (~4.2 sigma)
# P_topo (ms)      =  714.526617980218  +/- 2.73e-05
# P'_topo (s/s)    =  -0                +/- 1.44e-11
# P''_topo (s/s^2) =  0                 +/- 6.36e-15
# P_bary (ms)      =  N/A
# P'_bary (s/s)    =  N/A
# P''_bary (s/s^2) =  N/A
# P_orb (s)        =  N/A
# asin(i)/c (s)    =  N/A
# eccentricity     =  N/A
# w (rad)          =  N/A
# T_peri           =  N/A
######################################################
   0  11095.69
   1  11451.79
   2  11684.43
   3  11088.69
   4  11204.53
   5  11014.41
   6  11274.49
   7  11012.74
   8  11114.41
   9  11322.6
  10  10791.2
  11  11297.92
  12  11096.34
  13  11100.58
  14  11248.19
  15  11348.32
  16  11454.68
  17  11477.04
  18  11237.59
  19  11152.46
  20  10795
  21  10553.52
  22  11551.85
  23  11618.03
  24  10862.52
  25  10856.27
  26  10909.43
  27  10411.75
  28  10455.38
  29  11380.97
  30  11234.34
  31  10791.19
  32  10224.3
  33  10486.88
  34  10331.12
  35  10094.92
  36  10606.91
  37  11044.95
  38  10794.38
  39  10658.88
  40  10587.39
  41  11147.12
  42  11265.75
  43  10451.39
  44  10370.73
  45  10446.1
  46  10677.44
  47  10695.79
  48  11181.54
  49  11498.79
  50  11064.69
  51  10774.32
  52  10227.44
  53  10588.46
  54  10814.47
  55  11135.71
  56  11053.01
  57  11507.11
  58  11086.59
  59  10839.55
  60  10255.79
  61  10555.74
  62  11336.48
  63  11646.37
  64  11747.72
  65  9990.623
  66  9751.008
  67  9973.836
  68  10386.99
  69  10748.24
  70  10894.33
  71  11012.18
  72  10801.88
  73  10481.16
  74  10441.15
  75  10902.21
  76  10563.68
  77  10743.46
  78  10402.84
  79  10494.29
  80  10341.81
  81  10192.74
  82  10631.27
  83  10154.48
  84  10028.83
  85  10134.93
  86  10992.94
  87  10403.99
  88  10521.07
  89  10810.39
  90  10760.85
  91  10466.66
  92  10476.38
  93  10524.59
  94  10791.19
  95  11408.77
  96  11151.93
  97  11497.05
  98  10125.2
  99  9726.141
 100  9439.1
 101  10319.84
 102  11216
 103  10848.09
 104  10654.32
 105  10287.66
 106  9747.791
 107  9831.837
 108  10781.8
 109  10668.71
 110  10662.81
 111  10220.12
 112  10293.68
 113  10147.03
 114  10551.7
 115  10890.56
 116  10581.16
 117  10599.11
 118  10393.48
 119  10760.06
 120  10446.1
 121  10486.62
 122  11138.36
 123  10986.24
 124  10426.92
 125  10354.54
 126  10320.91
 127  10105.12
 128  10432.92
 129  10690.17
 130  10854.59
 131  9812.599
 132  9790.987
 133  9682.778
 134  9814.162
 135  10661.5
 136  10736.15
 137  11198.45
 138  10867.51
 139  10458.74
 140  10008.76
 141  10800.25
 142  10983.97
 143  10102.84
 144  10070.51
 145  10142.58
 146  10338.35
 147  10677.13
 148  11185.33
 149  10402.53
 150  10213.62
 151  10107.59
 152  10980.35
 153  11153.79
 154  11642.43
 155  12077.11
 156  11921.48
 157  11143.2
 158  9940.256
 159  9970.804
 160  10177.05
 161  10965.51
 162  11245
 163  10810.2
 164  10075.73
 165  9848.926
 166  9518.921
 167  9990.538
 168  10360.61
 169  10502.61
 170  10522.45
 171  9802.756
 172  10204.25
 173  10616.69
 174  11137.74
 175  10707.59
 176  10345.82
 177  10538.56
 178  10413.39
 179  9935.614
 180  9931.977
 181  10547.27
 182  11238.43
 183  11443.33
 184  10702.72
 185  10390.89
 186  9628.516
 187  9930.374
 188  10717.32
 189  10776.82
 190  10504.18
 191  10278.49
 192  10400.31
 193  10146.65
 194  10564.54
 195  10844.33
 196  10702.39
 197  10754.96
 198  10191.61
 199  10124.75
 200  10326.42
 201  10728.68
 202  10975.48
 203  11454.4
 204  10927.88
 205  10083.07
 206  10146.3
 207  10824.57
 208  11489.32
 209  10923.24
 210  10672.88
 211  10473.76
 212  10736.32
 213  10806.1
 214  11085.47
 215  11127.06
 216  10730.6
 217  9867.644
 218  9645.675
 219  9592.392
 220  10513.16
 221  11675.48
 222  11465.47
 223  10683.46
 224  10131.9
 225  10174.98
 226  10166.8
 227  10316.28
 228  10318.44
 229  10496.94
 230  10495.67
 231  10427.29
 232  10217.88
 233  10324.97
 234  10606.58
 235  11090.61
 236  11453.29
 237  11149.72
 238  10754.95
 239  10518.66
 240  10387.1
 241  10928.72
 242  11156.71
 243  11050.74
 244  10666.72
 245  10764.83
 246  10072.31
 247  10044.39
 248  10275.44
 249  10092.28
 250  9908.171
 251  9606.62
 252  9518.742
 253  9816.369
 254  9878.055
 255  10708.94
 256  11048.01
 257  10017.22
 258  9888.958
 259  9859.627
 260  10507.13
 261  11681.11
 262  11697.71
 263  11507.63
 264  10715.12
 265  9805.687
 266  9399.51
 267  10197.22
 268  10792.43
 269  11531.89
 270  11070.5
 271  10246.99
 272  9568.063
 273  9469.989
 274  9726.273
 275  10494.65
 276  10527.54
 277  9919.021
 278  10081.48
 279  10080.37
 280  10533.02
 281  10544.14
 282  10653.94
 283  10173.1
 284  9999.641
 285  9794.109
 286  10685.48
 287  11418.28
 288  11836.19
 289  11334.55
 290  10422.91
 291  10265.56
 292  9816.898
 293  10348.31
 294  11501.57
 295  12104.3
 296  12714.93
 297  12404.61
 298  12205.31
 299  12025.98
 300  12653.32
 301  12682.95
 302  11808.69
 303  10891.33
 304  10228.75
 305  10771.68
 306  10688.68
 307  11026.41
 308  10845.16
 309  10958.69
 310  10197.22
 311  10033.76
 312  10140.94
 313  10651.31
 314  11330.95
 315  11267.76
 316  10760.47
 317  9568.074
 318  9562.099
 319  9933.092
 320  10575.76
 321  11056.66
 322  11137.29
 323  10933.15
 324  10637.21
 325  9837.646
 326  10218.22
 327  10624.84
 328  10850.73
 329  10658.54
 330  10599.66
 331  10586.26
 332  10375.22
 333  11031.22
 334  11614.27
 335  11726.54
 336  11492.26
 337  11116.58
 338  10543.35
 339  10838.13
 340  11189.67
 341  11609.79
 342  11597.51
 343  11409.51
 344  11064.34
 345  10555.37
 346  10289.3
 347  10899.26
 348  11446.68
 349  11313.51
 350  10651.28
 351  10346.53
 352  10294.73
 353  11083.05
 354  11731.92
 355  11935.59
 356  11569.86
 357  10870.93
 358  11043.99
 359  11404.1
 360  11580.29
 361  11693.11
 362  11176.85
 363  10933.66
 364  11039.52
 365  10328.58
 366  11163.93
 367  11708
 368  12089.92
 369  11771.92
 370  10735.62
 371  10487.02
 372  10513.05
 373  11342.54
 374  11809.04
 375  12192.38
 376  11535.69
 377  10623.31
 378  10138.99
 379  10279.08
 380  11134.31
 381  11599.27
 382  11478.42
 383  10738.01
 384  10724.76
 385  10722.16
 386  11383.4
 387  11975.36
 388  12002.36
 389  11676.67
 390  11131.68
 391  10750.04
 392  10665.63
 393  11087.12
 394  11662.71
 395  12136.86
 396  11623.34
 397  11259.71
 398  10614.64
 399  10983.91
 400  11364.06
 401  11634.34
 402  11623.48
 403  10578.74
 404  10240.73
 405  9916.408
 406  10249.22
 407  11487.4
 408  11914.71
 409  11511.66
 410  11367.47
 411  10796.54
 412  10335.4
 413  10852.52
 414  11390.15
 415  11770.12
 416  11183.62
 417  11221.63
 418  10489.62
 419  11004.26
 420  11513.22
 421  11088.43
 422  11288.42
 423  10550.12
 424  10301.83
 425  10524.01
 426  11330.79
 427  11874.07
 428  12031.71
 429  11458.02
 430  11078.83
 431  10775.14
 432  10739.54
 433  10914.5
 434  11477.69
 435  11735.36
 436  11249.06
 437  10948.78
 438  10643.09
 439  11104.65
 440  11173.48
 441  11417.56
 442  11241.39
 443  10893.34
 444  11285.93
 445  11977.6
 446  11873.9
 447  11607.31
 448  11562.21
 449  10925.67
 450  10560.81
 451  10466.61
 452  11169.32
 453  11519.33
 454  11762.73
 455  11908.65
 456  11202.53
 457  11218.55
 458  10616.47
 459  10241.71
 460  11086.33
 461  11408.6
 462  11257.6
 463  11029.97
 464  10087.06
 465  9529.256
 466  10305.24
 467  10358.16
 468  10778.66
 469  10794.83
 470  10908.62
 471  10721.75
 472  10922.29
 473  11269.36
 474  11397.76
 475  11625.39
 476  11136.73
 477  10559.97
 478  10887.7
 479  11696.15
 480  11742.69
 481  11737.7
 482  11457.5
 483  10724.76
 484  10111.52
 485  10657.14
 486  11214.18
 487  11382.22
 488  11620.44
 489  11024.95
 490  10400.72
 491  10408.96
 492  11058.79
 493  11592.9
 494  11286.44
 495  11370.56
 496  11327.64
 497  11250.6
 498  11083.34
 499  11696.2
 500  12099.74
 501  12721.72
 502  11719
 503  11194.61
 504  10792
 505  10367.34
 506  10997.24
 507  11416.57
 508  12000.27
 509  11673.17
 510  11199.85
 511  10659.43
