# Input file       =  1211199245.104786_cleaned.dat
# Candidate        =  PSR_0332+5434
# Telescope        =  AR
# Epoch_topo       =  58262.510001212802
# Epoch_bary       =  N/A
# T_sample         =  0.002
# Data Folded      =  7340032
# Data Avg         =  0.185625874616172
# Data StdDev      =  4.54442441838108 
# Profile Bins     =  1024
# Profile Avg      =  1330.56130075688 
# Profile StdDev   =  384.749339614901 
# Reduced chi-sqr  =  0.679
# Prob(Noise)      <  1   (~0.0 sigma)
# P_topo (ms)      =  714.524616004647  +/- 0.00105
# P'_topo (s/s)    =  -0                +/- 5.53e-10
# P''_topo (s/s^2) =  0                 +/- 2.44e-13
# P_bary (ms)      =  N/A
# P'_bary (s/s)    =  N/A
# P''_bary (s/s^2) =  N/A
# P_orb (s)        =  N/A
# asin(i)/c (s)    =  N/A
# eccentricity     =  N/A
# w (rad)          =  N/A
# T_peri           =  N/A
######################################################
   0  1410.11
   1  1366.807
   2  1374.283
   3  1460.154
   4  1452.782
   5  1602.214
   6  1565.913
   7  1647.804
   8  1548.026
   9  1504.979
  10  1594.228
  11  1424.809
  12  1469.502
  13  1460.241
  14  1620.071
  15  1621.179
  16  1595.619
  17  1460.887
  18  1386.046
  19  1334.273
  20  1393.453
  21  1494.481
  22  1425.198
  23  1269.825
  24  1255.306
  25  1376.951
  26  1531.373
  27  1654.042
  28  1770.565
  29  1692.027
  30  1635.979
  31  1563.203
  32  1604.408
  33  1543.299
  34  1396.818
  35  1261.936
  36  1210.92
  37  1225.84
  38  1270.677
  39  1217.544
  40  1182.596
  41  1217.691
  42  1335.522
  43  1454.676
  44  1366.784
  45  1221.888
  46  1244.584
  47  1240.849
  48  1191.543
  49  1088.636
  50  1045.349
  51  1121.522
  52  1083.62
  53  1124.265
  54  1225.486
  55  1406.719
  56  1465.833
  57  1429.218
  58  1398.095
  59  1478.054
  60  1435.352
  61  1244.308
  62  1259.53
  63  1426.457
  64  1462.731
  65  1336.665
  66  1307.826
  67  1335.076
  68  1471.703
  69  1431.435
  70  1481.785
  71  1512.735
  72  1539.051
  73  1534.325
  74  1458.322
  75  1406.068
  76  1305.694
  77  1457.363
  78  1483.14
  79  1482.216
  80  1485
  81  1414.43
  82  1462.333
  83  1389.923
  84  1383.002
  85  1291.408
  86  1263.534
  87  1181.204
  88  1153.538
  89  1346.891
  90  1506.597
  91  1485.115
  92  1533.383
  93  1614.868
  94  1639.675
  95  1634.709
  96  1566.073
  97  1547.414
  98  1427.426
  99  1305.62
 100  1332.123
 101  1309.962
 102  1342.203
 103  1262.735
 104  1292.957
 105  1241.214
 106  1210.047
 107  1284.45
 108  1316.472
 109  1380.094
 110  1383.498
 111  1370.747
 112  1418.414
 113  1376.485
 114  1332.551
 115  1175.138
 116  1255.093
 117  1229.118
 118  1405.928
 119  1407.734
 120  1442.39
 121  1427.34
 122  1482.26
 123  1513.033
 124  1560.14
 125  1529.127
 126  1320.66
 127  1205.176
 128  1266.264
 129  1298.312
 130  1311.794
 131  1225.162
 132  1242.305
 133  1185.164
 134  1211.761
 135  1155.356
 136  1134.173
 137  1133.427
 138  1206.928
 139  1306.089
 140  1344.628
 141  1381.527
 142  1350.668
 143  1340.466
 144  1401.168
 145  1314.67
 146  1330.311
 147  1272.521
 148  1417.069
 149  1442.827
 150  1391.852
 151  1410.083
 152  1399.2
 153  1387.831
 154  1298.934
 155  1344.254
 156  1437.218
 157  1495.439
 158  1410.193
 159  1352.543
 160  1412.784
 161  1477.238
 162  1486.126
 163  1360.316
 164  1292.577
 165  1344.267
 166  1449.734
 167  1457.359
 168  1315.933
 169  1173.022
 170  1132.724
 171  1126.949
 172  1325.973
 173  1485.706
 174  1556.408
 175  1492.752
 176  1579.392
 177  1637.428
 178  1625.216
 179  1426.714
 180  1488.706
 181  1496.702
 182  1417.305
 183  1240.12
 184  1131.24
 185  1049.775
 186  945.7642
 187  952.6882
 188  1030.336
 189  1020.818
 190  1091.462
 191  1183.224
 192  1275.654
 193  1263.067
 194  1350.338
 195  1395.771
 196  1398.315
 197  1348.746
 198  1461.492
 199  1412.43
 200  1377.746
 201  1257.211
 202  1244.837
 203  1214.88
 204  1269.613
 205  1295.785
 206  1145.932
 207  1079.651
 208  1137.577
 209  1337.096
 210  1365.104
 211  1309.772
 212  1373.478
 213  1409.362
 214  1394.23
 215  1331.381
 216  1444.607
 217  1441.241
 218  1408.75
 219  1331.012
 220  1347.392
 221  1299.221
 222  1430.109
 223  1536.538
 224  1576.969
 225  1599.564
 226  1546.175
 227  1609.375
 228  1385.472
 229  1415.334
 230  1409.768
 231  1465.934
 232  1364.521
 233  1422.404
 234  1399.482
 235  1378.12
 236  1255.004
 237  1267.698
 238  1412.36
 239  1471.573
 240  1480.675
 241  1409.001
 242  1458.99
 243  1509.864
 244  1497.598
 245  1501.629
 246  1392.807
 247  1250.666
 248  1126.04
 249  1091.746
 250  1138.923
 251  1142.561
 252  1239.054
 253  1368.979
 254  1308.827
 255  1275.474
 256  1320.619
 257  1422.664
 258  1307.702
 259  1306
 260  1361.733
 261  1383.834
 262  1422.381
 263  1454.849
 264  1508.833
 265  1563.454
 266  1591.578
 267  1475.853
 268  1404.072
 269  1331.946
 270  1441.215
 271  1495.329
 272  1375.994
 273  1268.182
 274  1061.474
 275  1105.044
 276  1028.337
 277  1143.658
 278  1154.62
 279  1186.44
 280  1150.656
 281  1196.831
 282  1238.627
 283  1294.135
 284  1405.74
 285  1317.683
 286  1275.432
 287  1252.747
 288  1353.538
 289  1370.225
 290  1478.764
 291  1378.527
 292  1442.55
 293  1409.986
 294  1473.671
 295  1407.352
 296  1314.743
 297  1240.67
 298  1407.973
 299  1371.626
 300  1444.799
 301  1454.637
 302  1312.338
 303  1269.109
 304  1351.618
 305  1544.19
 306  1494.042
 307  1334.137
 308  1328.039
 309  1274.213
 310  1349.485
 311  1386.733
 312  1452.641
 313  1360.821
 314  1325.752
 315  1323.332
 316  1300.407
 317  1273.779
 318  1281.181
 319  1413.993
 320  1421.804
 321  1477.047
 322  1507.945
 323  1514.464
 324  1507.72
 325  1584.987
 326  1683.27
 327  1629.484
 328  1561.545
 329  1542.761
 330  1583.712
 331  1664.436
 332  1587.541
 333  1463.584
 334  1415.018
 335  1572.073
 336  1695.014
 337  1723.805
 338  1610.566
 339  1495.827
 340  1545.305
 341  1466.534
 342  1422.753
 343  1301.286
 344  1334.902
 345  1408.702
 346  1450.422
 347  1482.351
 348  1480.683
 349  1405.594
 350  1416.11
 351  1334.267
 352  1366.457
 353  1321.549
 354  1340.184
 355  1350.108
 356  1411.398
 357  1376.37
 358  1255.026
 359  1231.662
 360  1333.451
 361  1604.832
 362  1721.787
 363  1694.737
 364  1579.043
 365  1601.144
 366  1563.855
 367  1433.758
 368  1412.85
 369  1425.764
 370  1464.226
 371  1335.769
 372  1315.303
 373  1278.349
 374  1262.556
 375  1367.5
 376  1343.174
 377  1420.289
 378  1472.132
 379  1478.057
 380  1549.896
 381  1540.999
 382  1563.47
 383  1459.373
 384  1464.453
 385  1399.959
 386  1385.151
 387  1308.671
 388  1348.13
 389  1373.105
 390  1266.731
 391  1278.333
 392  1211.859
 393  1221.256
 394  1221.205
 395  1199.058
 396  1306.556
 397  1233.741
 398  1151.322
 399  1085.245
 400  1269.609
 401  1336.923
 402  1338.406
 403  1230.409
 404  1374.609
 405  1349.275
 406  1217.334
 407  982.8765
 408  1043.11
 409  1298.512
 410  1488.376
 411  1487.316
 412  1283.682
 413  1137.944
 414  1185.537
 415  1319.1
 416  1365.876
 417  1449.38
 418  1363.754
 419  1308
 420  1206.051
 421  1256.16
 422  1452.083
 423  1548.569
 424  1500.258
 425  1362.903
 426  1239.681
 427  1310.474
 428  1313.726
 429  1393.773
 430  1403.725
 431  1421.738
 432  1279.949
 433  1246.824
 434  1254.405
 435  1365.552
 436  1404.652
 437  1417.471
 438  1360.152
 439  1362.632
 440  1348.118
 441  1487.819
 442  1610.646
 443  1609.161
 444  1575.157
 445  1427.172
 446  1389.395
 447  1399.469
 448  1434.404
 449  1520.037
 450  1513.59
 451  1504.693
 452  1328.656
 453  1292.294
 454  1365.511
 455  1435.287
 456  1374.024
 457  1275.45
 458  1316.909
 459  1318.455
 460  1398.841
 461  1282.355
 462  1253.149
 463  1165.997
 464  1166.451
 465  1107.23
 466  1101.096
 467  1205.737
 468  1202.788
 469  1228.136
 470  1195.501
 471  1324.597
 472  1369.319
 473  1262.295
 474  1310.533
 475  1283.523
 476  1317.539
 477  1214.235
 478  1209.819
 479  1253.012
 480  1221.001
 481  1199.281
 482  1102.266
 483  1088.922
 484  1117.535
 485  1306.939
 486  1393.255
 487  1454.161
 488  1320.143
 489  1246.381
 490  1119.632
 491  1199.048
 492  1333.737
 493  1321.8
 494  1096.27
 495  1043.385
 496  1106.501
 497  1064.743
 498  1076.603
 499  1190.939
 500  1388.02
 501  1297.267
 502  1262.298
 503  1374.673
 504  1418.748
 505  1299.683
 506  1324.239
 507  1422.251
 508  1429.801
 509  1311.293
 510  1366.89
 511  1328.58
 512  1440.955
 513  1510.771
 514  1653.966
 515  1547.657
 516  1369.231
 517  1228.376
 518  1327.042
 519  1391.569
 520  1492.791
 521  1398.818
 522  1305.875
 523  1165.72
 524  1187.843
 525  1045.723
 526  1036.81
 527  1033.621
 528  1114.618
 529  1171.518
 530  1285.103
 531  1306.888
 532  1173.606
 533  1134.108
 534  1222.02
 535  1247.728
 536  1202.18
 537  1023.878
 538  1070.907
 539  1156.531
 540  1251.364
 541  1275.552
 542  1266.484
 543  1224.257
 544  1275.513
 545  1412.015
 546  1475.871
 547  1366.197
 548  1237.062
 549  1255.547
 550  1493.408
 551  1434.465
 552  1382.987
 553  1306.922
 554  1369.252
 555  1345.673
 556  1284.726
 557  1376.107
 558  1364.217
 559  1459.632
 560  1407.468
 561  1477.025
 562  1505.188
 563  1602.445
 564  1584.605
 565  1617.123
 566  1533.928
 567  1525.517
 568  1457.01
 569  1449.123
 570  1337.381
 571  1300.72
 572  1163.132
 573  1117.484
 574  1092.939
 575  1264.409
 576  1197.518
 577  1346.514
 578  1349.379
 579  1307.14
 580  1213.404
 581  1288.945
 582  1355.571
 583  1358.492
 584  1311.643
 585  1297.306
 586  1323.814
 587  1378.731
 588  1477.382
 589  1411.529
 590  1388.774
 591  1243.187
 592  1262.53
 593  1400.755
 594  1613.285
 595  1791.069
 596  1999.728
 597  2165.1
 598  2188.48
 599  2182.509
 600  2256.573
 601  2337.893
 602  2171.373
 603  1972.287
 604  1749.807
 605  1493.495
 606  1291.483
 607  1249.956
 608  1251.152
 609  1118.977
 610  1175.701
 611  1302.969
 612  1450.042
 613  1580.169
 614  1640.273
 615  1678.542
 616  1541.572
 617  1481.678
 618  1414.371
 619  1344.244
 620  1331.339
 621  1351.705
 622  1499.981
 623  1508.001
 624  1533.383
 625  1569.981
 626  1566.95
 627  1543.222
 628  1431.17
 629  1443.822
 630  1421.118
 631  1467.173
 632  1603.706
 633  1542.316
 634  1524.026
 635  1452.492
 636  1498.2
 637  1471.251
 638  1396.424
 639  1381.488
 640  1439.152
 641  1473.646
 642  1399.467
 643  1356.058
 644  1303.64
 645  1315.06
 646  1326.493
 647  1367.721
 648  1294.625
 649  1264.166
 650  1245.84
 651  1379.383
 652  1443.086
 653  1347.721
 654  1196.388
 655  1224.536
 656  1309.11
 657  1351.976
 658  1307.328
 659  1233.476
 660  1227.941
 661  1229.341
 662  1402.82
 663  1395.734
 664  1334.765
 665  1390.184
 666  1438.533
 667  1445.438
 668  1343.02
 669  1388.508
 670  1346.287
 671  1418.098
 672  1316.009
 673  1294.344
 674  1098.738
 675  1082.218
 676  1308.079
 677  1398.369
 678  1403.823
 679  1345.623
 680  1446.019
 681  1353.108
 682  1157.718
 683  1075.851
 684  1162.918
 685  1358.219
 686  1311.891
 687  1183.766
 688  1157.1
 689  1312.171
 690  1387.851
 691  1332.165
 692  1287.939
 693  1348.184
 694  1421.857
 695  1516.525
 696  1488.615
 697  1410.746
 698  1462.298
 699  1366.134
 700  1207.734
 701  1087.224
 702  1013.993
 703  1041.541
 704  1074.998
 705  1133.799
 706  1353.637
 707  1529.798
 708  1581.227
 709  1535.709
 710  1470.941
 711  1530.461
 712  1526.601
 713  1535.302
 714  1456.867
 715  1386.551
 716  1252.127
 717  1285.011
 718  1164.806
 719  1208.124
 720  1188.813
 721  1330.961
 722  1425.522
 723  1423.702
 724  1361.031
 725  1351.319
 726  1346.669
 727  1314.287
 728  1324.093
 729  1280.674
 730  1222.611
 731  1268.246
 732  1311.808
 733  1319.941
 734  1212.802
 735  1151.025
 736  1248.735
 737  1417.35
 738  1433.578
 739  1419.636
 740  1424.346
 741  1553.124
 742  1485.147
 743  1352.675
 744  1234.159
 745  1249.473
 746  1220.981
 747  1271.363
 748  1283.083
 749  1293.971
 750  1085.261
 751  973.0784
 752  952.9553
 753  1134.03
 754  1230.679
 755  1340.376
 756  1422.094
 757  1414.099
 758  1418.805
 759  1300.163
 760  1321.179
 761  1299.306
 762  1205.928
 763  1099.983
 764  1151.341
 765  1213.78
 766  1233.641
 767  1203.144
 768  1219.572
 769  1076.187
 770  982.7415
 771  901.1462
 772  907.3629
 773  953.1082
 774  1039.655
 775  1093.613
 776  1034.683
 777  1025.944
 778  1062.567
 779  1089.415
 780  1089.044
 781  1115.773
 782  1206.724
 783  1232.805
 784  1268.467
 785  1300.778
 786  1292.502
 787  1184.969
 788  1097.123
 789  1091.745
 790  1024.922
 791  1083.449
 792  1140.553
 793  1163.985
 794  1246.764
 795  1244.492
 796  1221.714
 797  1136.579
 798  1080.418
 799  1040.949
 800  1079.128
 801  1189.595
 802  1257.813
 803  1255.64
 804  1207.826
 805  1197.377
 806  1197.569
 807  1279.338
 808  1213.467
 809  1132.629
 810  970.5058
 811  996.6042
 812  1051.379
 813  1087.342
 814  1128.503
 815  1154.441
 816  1196.161
 817  1270.937
 818  1322.139
 819  1343.472
 820  1221.149
 821  1246.131
 822  1219.708
 823  1213.942
 824  1226.621
 825  1208.091
 826  1351.027
 827  1357.443
 828  1388.041
 829  1352.552
 830  1370.264
 831  1482.784
 832  1405.847
 833  1372.973
 834  1164.176
 835  1214.778
 836  1266.835
 837  1417.868
 838  1547.846
 839  1700.959
 840  1716.413
 841  1723.641
 842  1660.098
 843  1623.637
 844  1530.394
 845  1500.965
 846  1419.747
 847  1348.115
 848  1232.623
 849  1255.796
 850  1327.149
 851  1419.125
 852  1367.293
 853  1419.765
 854  1388.95
 855  1256.119
 856  1013.85
 857  1044.133
 858  1226.999
 859  1282.908
 860  1252.688
 861  1284.468
 862  1282.922
 863  1423.069
 864  1438.4
 865  1506.18
 866  1332.752
 867  1316.97
 868  1350.271
 869  1428.646
 870  1434.623
 871  1443.106
 872  1337.83
 873  1244.157
 874  1207.546
 875  1338.334
 876  1289.37
 877  1208.48
 878  1258.614
 879  1433.964
 880  1495.771
 881  1472.244
 882  1410.435
 883  1458.492
 884  1374.512
 885  1344.767
 886  1250.277
 887  1228.988
 888  1230.767
 889  1252.328
 890  1445.661
 891  1444.624
 892  1484.044
 893  1405.228
 894  1445.841
 895  1491.705
 896  1458.702
 897  1445.989
 898  1407.664
 899  1403.158
 900  1309.651
 901  1299.118
 902  1412.114
 903  1482.688
 904  1545.535
 905  1537.328
 906  1697.146
 907  1649.699
 908  1436.892
 909  1280.171
 910  1192.164
 911  1234.922
 912  1227.612
 913  1324.266
 914  1455.316
 915  1446.83
 916  1448.161
 917  1344.422
 918  1320.103
 919  1383.151
 920  1454.667
 921  1354.947
 922  1191.524
 923  1129.882
 924  1157.504
 925  1178.36
 926  1117.479
 927  1114.133
 928  1139.865
 929  1169.631
 930  1207.566
 931  1176.941
 932  1253.18
 933  1160.259
 934  1104.634
 935  1141.09
 936  1285.822
 937  1360.582
 938  1273.355
 939  1240.918
 940  1239.513
 941  1108.917
 942  898.8013
 943  823.7478
 944  914.8682
 945  1032.163
 946  1124.553
 947  1185.325
 948  1151.757
 949  1176.515
 950  1161.289
 951  1175.989
 952  1115.234
 953  1116.921
 954  1095.789
 955  1126.013
 956  1092.556
 957  1068.46
 958  944.2582
 959  882.2971
 960  848.1482
 961  922.1091
 962  1035.887
 963  1090.041
 964  1145.149
 965  1084.456
 966  1043.93
 967  997.4781
 968  1004.953
 969  1013.391
 970  1008.689
 971  1004.591
 972  1034.393
 973  1201.58
 974  1249.4
 975  1176.147
 976  1008.019
 977  1186.032
 978  1322.161
 979  1380.524
 980  1214.666
 981  1161.992
 982  1182.956
 983  1197.736
 984  1212.313
 985  1090.49
 986  1014.354
 987  1010.036
 988  1035.9
 989  1153.739
 990  1292.134
 991  1344.836
 992  1380.464
 993  1398.268
 994  1380.762
 995  1276.268
 996  1028.111
 997  826.8024
 998  791.7257
 999  937.3311
1000  1030.472
1001  1137.935
1002  1202.6
1003  1278.951
1004  1155.207
1005  1208.631
1006  1279.981
1007  1312.706
1008  1160.827
1009  1017.88
1010  1171.393
1011  1234.047
1012  1255.841
1013  1100.202
1014  1047.663
1015  982.7335
1016  1062.271
1017  1143.714
1018  1235.943
1019  1289.06
1020  1301.89
1021  1454.326
1022  1454.779
1023  1499.345
