# Input file       =  1211959054.109565_cleaned.dat
# Candidate        =  PSR_0332+5434
# Telescope        =  AR
# Epoch_topo       =  58271.304086916265
# Epoch_bary       =  N/A
# T_sample         =  0.002
# Data Folded      =  7340032
# Data Avg         =  0.0837414732034501
# Data StdDev      =  2.96252228764842 
# Profile Bins     =  1024
# Profile Avg      =  600.240813429949 
# Profile StdDev   =  250.819111251324 
# Reduced chi-sqr  =  1.196
# Prob(Noise)      <  1.43e-05   (~4.2 sigma)
# P_topo (ms)      =  714.515673388696  +/- 0.000374
# P'_topo (s/s)    =  -0                +/- 1.98e-10
# P''_topo (s/s^2) =  0                 +/- 8.72e-14
# P_bary (ms)      =  N/A
# P'_bary (s/s)    =  N/A
# P''_bary (s/s^2) =  N/A
# P_orb (s)        =  N/A
# asin(i)/c (s)    =  N/A
# eccentricity     =  N/A
# w (rad)          =  N/A
# T_peri           =  N/A
######################################################
   0  512.1817
   1  410.9492
   2  444.2211
   3  431.2132
   4  503.1353
   5  444.6626
   6  460.3237
   7  506.3914
   8  606.043
   9  546.679
  10  468.3583
  11  490.532
  12  624.8837
  13  652.9741
  14  595.7213
  15  621.8416
  16  661.0969
  17  665.9657
  18  605.5827
  19  563.9807
  20  637.9778
  21  757.9283
  22  727.5521
  23  653.1136
  24  651.7828
  25  747.3265
  26  738.6236
  27  755.0253
  28  782.0516
  29  823.9185
  30  753.4896
  31  778.1805
  32  766.9084
  33  758.0013
  34  632.2589
  35  654.4997
  36  657.0692
  37  611.6441
  38  576.1608
  39  668.0841
  40  711.5819
  41  733.4362
  42  788.873
  43  785.4888
  44  696.8826
  45  644.8788
  46  730.7803
  47  723.5944
  48  622.9854
  49  468.243
  50  446.9519
  51  482.2935
  52  525.9748
  53  517.0028
  54  483.7143
  55  513.6242
  56  535.0688
  57  548.1671
  58  480.7833
  59  459.6837
  60  416.3036
  61  456.0811
  62  561.2587
  63  648.6029
  64  639.2029
  65  563.4163
  66  452.1916
  67  458.0778
  68  493.6071
  69  579.3921
  70  624.3678
  71  603.4903
  72  572.5385
  73  416.5621
  74  351.7655
  75  399.7129
  76  474.3829
  77  560.8126
  78  582.9437
  79  571.1243
  80  510.7524
  81  417.273
  82  379.3132
  83  351.7484
  84  413.7426
  85  432.3806
  86  588.864
  87  636.6669
  88  702.1027
  89  571.776
  90  538.1503
  91  500.4004
  92  528.4332
  93  643.3743
  94  707.8629
  95  805.0022
  96  783.1656
  97  784.3659
  98  645.0417
  99  528.6402
 100  475.2375
 101  444.0147
 102  553.72
 103  574.6011
 104  642.4294
 105  543.2345
 106  583.639
 107  569.7985
 108  527.3911
 109  385.7654
 110  271.9908
 111  362.5218
 112  507.7763
 113  632.3422
 114  631.377
 115  604.189
 116  500.1072
 117  578.7799
 118  641.0447
 119  677.1005
 120  547.1299
 121  591.5594
 122  587.2877
 123  564.8161
 124  472.163
 125  455.4941
 126  559.999
 127  608.2258
 128  592.2999
 129  543.8349
 130  496.0299
 131  484.9891
 132  466.1399
 133  541.1529
 134  551.5569
 135  583.0545
 136  585.2715
 137  645.7438
 138  634.0335
 139  616.8156
 140  581.7078
 141  601.4615
 142  653.7126
 143  733.3094
 144  714.2327
 145  642.6301
 146  590.2416
 147  604.988
 148  575.7398
 149  542.72
 150  588.8313
 151  558.6661
 152  522.7114
 153  497.205
 154  557.4926
 155  567.3477
 156  518.886
 157  525.8756
 158  508.2573
 159  518.3864
 160  557.7268
 161  581.735
 162  640.6085
 163  545.598
 164  525.944
 165  453.9759
 166  480.291
 167  463.4077
 168  570.9479
 169  690.1009
 170  689.1895
 171  621.8232
 172  645.0311
 173  732.4718
 174  784.0168
 175  799.7806
 176  736.3016
 177  695.1931
 178  649.8111
 179  744.2604
 180  732.9328
 181  653.6968
 182  611.0197
 183  698.7875
 184  709.6848
 185  652.2358
 186  620.1874
 187  667.0502
 188  601.9134
 189  519.8741
 190  598.1354
 191  665.4579
 192  703.7905
 193  679.6002
 194  714.3264
 195  763.5612
 196  739.6262
 197  680.7469
 198  649.4888
 199  588.2636
 200  783.5825
 201  842.3444
 202  811.3431
 203  742.9974
 204  810.0651
 205  850.083
 206  674.5248
 207  568.9352
 208  589.6512
 209  708.4236
 210  734.9902
 211  689.5734
 212  624.7104
 213  609.2223
 214  581.5509
 215  636.695
 216  721.0818
 217  741.5152
 218  710.0419
 219  721.8887
 220  770.3593
 221  726.438
 222  559.2333
 223  509.9565
 224  478.1493
 225  428.6596
 226  330.6567
 227  345.1671
 228  414.696
 229  561.3725
 230  565.7343
 231  619.5815
 232  683.0939
 233  775.4202
 234  742.0402
 235  738.1367
 236  778.8216
 237  783.3186
 238  674.9095
 239  536.4039
 240  561.192
 241  496.8727
 242  491.0217
 243  430.8354
 244  554.3337
 245  610.1152
 246  643.4128
 247  518.2805
 248  421.1146
 249  435.4775
 250  568.7497
 251  624.4892
 252  658.3433
 253  596.1335
 254  574.5065
 255  568.202
 256  566.8399
 257  591.6153
 258  460.9337
 259  377.3208
 260  329.2714
 261  357.7289
 262  430.0471
 263  412.1119
 264  461.2323
 265  488.4387
 266  516.0965
 267  504.1521
 268  504.5442
 269  478.0315
 270  542.4212
 271  555.2597
 272  568.4919
 273  405.9938
 274  407.2029
 275  491.929
 276  583.8114
 277  598.2324
 278  639.178
 279  724.4468
 280  813.2103
 281  746.5475
 282  764.2087
 283  691.1273
 284  627.4692
 285  575.1365
 286  642.1775
 287  671.1249
 288  720.1788
 289  738.1373
 290  695.2513
 291  636.2348
 292  653.8819
 293  678.1986
 294  588.1762
 295  560.604
 296  545.8676
 297  515.7573
 298  435.7461
 299  470.8785
 300  616.1967
 301  654.4067
 302  627.7238
 303  541.2743
 304  491.0198
 305  570.8874
 306  517.7647
 307  498.7387
 308  524.1656
 309  676.5216
 310  665.7996
 311  593.199
 312  640.6304
 313  718.639
 314  672.6631
 315  599.876
 316  626.4619
 317  723.7955
 318  684.1828
 319  655.8163
 320  586.0935
 321  512.8983
 322  334.1405
 323  394.6215
 324  364.2716
 325  565.1116
 326  547.1161
 327  637.7962
 328  578.4659
 329  620.7294
 330  524.613
 331  551.5479
 332  568.5693
 333  618.7073
 334  542.0272
 335  457.5124
 336  345.5465
 337  332.0701
 338  350.5403
 339  477.2686
 340  591.5577
 341  693.8227
 342  689.1259
 343  611.3394
 344  490.9209
 345  504.3
 346  537.462
 347  689.8196
 348  668.9309
 349  690.8333
 350  678.1174
 351  789.8433
 352  898.6461
 353  779.4634
 354  622.3192
 355  493.5809
 356  477.0686
 357  497.4129
 358  539.3661
 359  606.183
 360  631.3124
 361  659.1216
 362  677.0565
 363  728.3686
 364  730.4327
 365  736.2269
 366  573.9449
 367  443.0996
 368  506.2822
 369  516.9476
 370  519.2924
 371  508.58
 372  657.994
 373  729.2366
 374  780.8052
 375  782.7855
 376  731.2394
 377  561.4376
 378  572.3609
 379  556.4194
 380  616.7871
 381  626.5446
 382  585.1518
 383  513.0394
 384  511.042
 385  649.5093
 386  701.4828
 387  643.6773
 388  563.6866
 389  521.183
 390  509.2506
 391  402.7122
 392  401.8708
 393  459.5503
 394  608.0423
 395  698.0593
 396  649.0434
 397  509.7159
 398  440.5699
 399  482.4265
 400  551.5607
 401  593.1938
 402  596.6843
 403  562.3781
 404  484.2051
 405  470.3353
 406  424.2482
 407  440.9568
 408  497.1833
 409  534.6735
 410  492.8327
 411  498.5381
 412  446.3202
 413  467.6689
 414  389.5085
 415  452.4655
 416  486.6547
 417  511.6281
 418  530.0931
 419  505.191
 420  599.222
 421  640.8561
 422  579.7734
 423  478.8095
 424  419.5312
 425  497.6842
 426  488.0048
 427  551.4854
 428  650.039
 429  611.3046
 430  499.7799
 431  413.1526
 432  419.0569
 433  524.2866
 434  496.6808
 435  596.4792
 436  509.3554
 437  508.336
 438  568.8597
 439  615.6224
 440  705.1302
 441  636.1913
 442  606.3072
 443  615.4224
 444  634.0262
 445  660.494
 446  585.8419
 447  529.8802
 448  542.1742
 449  672.7043
 450  769.0604
 451  726.1916
 452  577.5775
 453  479.993
 454  420.6086
 455  418.3479
 456  558.3326
 457  633.5505
 458  767.1995
 459  686.7006
 460  663.783
 461  584.5389
 462  536.559
 463  508.8039
 464  575.1171
 465  723.7292
 466  745.9838
 467  646.5466
 468  492.692
 469  407.8496
 470  415.6487
 471  508.3439
 472  631.0413
 473  640.4933
 474  448.6115
 475  221.8756
 476  198.9563
 477  348.5647
 478  537.4332
 479  601.0148
 480  675.652
 481  699.0355
 482  741.6482
 483  670.2346
 484  690.1869
 485  597.6217
 486  620.6156
 487  521.5652
 488  524.2319
 489  476.4714
 490  430.3209
 491  425.5346
 492  421.3176
 493  422.2925
 494  360.4596
 495  446.5194
 496  476.5687
 497  523.2808
 498  530.8354
 499  525.7748
 500  441.1703
 501  460.5642
 502  413.5879
 503  592.6201
 504  648.963
 505  743.3129
 506  642.4815
 507  607.8458
 508  660.632
 509  595.8077
 510  566.2399
 511  557.7465
 512  589.0262
 513  537.9812
 514  536.1392
 515  498.6179
 516  511.7078
 517  496.7162
 518  561.4511
 519  522.4929
 520  511.5261
 521  454.0069
 522  473.1006
 523  529.2966
 524  524.4892
 525  520.2107
 526  560.2145
 527  656.5397
 528  772.0415
 529  774.4736
 530  678.666
 531  609.0043
 532  603.1667
 533  640.7512
 534  659.2233
 535  653.2156
 536  670.8969
 537  647.1519
 538  653.9151
 539  668.6076
 540  700.8453
 541  791.3107
 542  804.5628
 543  809.4107
 544  763.6121
 545  748.1207
 546  727.9885
 547  739.9246
 548  766.0903
 549  796.5173
 550  706.275
 551  674.907
 552  640.3652
 553  690.1985
 554  591.3018
 555  632.3463
 556  633.4546
 557  649.0505
 558  624.8783
 559  619.9006
 560  713.3958
 561  733.8754
 562  774.7778
 563  733.4247
 564  609.7194
 565  670.5397
 566  749.6301
 567  875.9991
 568  870.6563
 569  775.5463
 570  768.9529
 571  742.3038
 572  693.3391
 573  646.8951
 574  674.7344
 575  766.1886
 576  801.1226
 577  726.3425
 578  666.442
 579  642.2606
 580  586.4052
 581  700.4716
 582  824.6038
 583  971.1838
 584  889.7344
 585  916.2225
 586  948.0138
 587  980.8865
 588  987.291
 589  980.8018
 590  1079.692
 591  1131.477
 592  1249.123
 593  1303.55
 594  1476.857
 595  1534.605
 596  1563.18
 597  1490.116
 598  1506.55
 599  1473.508
 600  1472.482
 601  1335.958
 602  1228.944
 603  987.3512
 604  880.3701
 605  964.7572
 606  1008.206
 607  933.7469
 608  808.7194
 609  712.8596
 610  660.4745
 611  554.7023
 612  560.2934
 613  612.1555
 614  739.4897
 615  764.2623
 616  748.9144
 617  719.0999
 618  740.789
 619  786.8167
 620  766.4867
 621  760.4239
 622  745.7173
 623  782.4948
 624  832.5607
 625  917.7514
 626  964.4404
 627  940.6268
 628  840.8678
 629  822.6674
 630  875.5777
 631  865.5299
 632  831.1824
 633  764.0952
 634  765.111
 635  748.1421
 636  667.1935
 637  591.7621
 638  655.2237
 639  719.1424
 640  684.2456
 641  604.5765
 642  662.4768
 643  769.5067
 644  836.4821
 645  763.9418
 646  588.8813
 647  479.5914
 648  486.0376
 649  508.1684
 650  569.0414
 651  586.3804
 652  694.9326
 653  669.2462
 654  602.5262
 655  451.2215
 656  421.3313
 657  408.1976
 658  530.8723
 659  687.9406
 660  738.9828
 661  660.2371
 662  467.7067
 663  430.7526
 664  440.5203
 665  454.7225
 666  531.5309
 667  463.1546
 668  472.7971
 669  359.5109
 670  414.4366
 671  451.6668
 672  516.9795
 673  602.0708
 674  587.4498
 675  617.7013
 676  459.2412
 677  483.0836
 678  438.9503
 679  521.4402
 680  496.9837
 681  515.1199
 682  462.7361
 683  426.9185
 684  423.0674
 685  535.5821
 686  622.0672
 687  710.347
 688  677.1379
 689  700.5023
 690  732.4017
 691  685.2795
 692  573.5087
 693  636.4829
 694  722.1106
 695  711.2454
 696  644.8406
 697  607.6171
 698  631.7186
 699  583.9717
 700  561.1294
 701  579.071
 702  651.7124
 703  776.2759
 704  746.5213
 705  587.1633
 706  506.2559
 707  531.7974
 708  624.6439
 709  611.6323
 710  630.2499
 711  733.5032
 712  842.4529
 713  856.2488
 714  794.0051
 715  855.562
 716  769.0137
 717  638.9568
 718  505.1788
 719  464.7231
 720  440.423
 721  538.0193
 722  651.6847
 723  759.0727
 724  696.6331
 725  663.8468
 726  671.1235
 727  659.4161
 728  627.2242
 729  605.894
 730  607.7635
 731  614.6194
 732  537.7786
 733  519.3064
 734  456.4155
 735  502.3147
 736  510.0848
 737  568.3125
 738  514.1844
 739  580.9104
 740  594.0795
 741  577.726
 742  552.5331
 743  607.3293
 744  620.2214
 745  599.7169
 746  561.2749
 747  556.7551
 748  526.145
 749  524.9285
 750  632.568
 751  687.9194
 752  678.2892
 753  580.9241
 754  522.5535
 755  527.4211
 756  548.5187
 757  568.4253
 758  637.5811
 759  661.8822
 760  546.702
 761  467.6755
 762  392.1562
 763  504.2231
 764  491.3595
 765  470.1772
 766  479.9863
 767  484.1046
 768  594.66
 769  625.8634
 770  666.0316
 771  655.4347
 772  675.424
 773  774.5408
 774  761.7405
 775  767.0782
 776  591.5419
 777  561.9906
 778  492.5864
 779  558.4515
 780  529.2554
 781  600.1091
 782  651.8909
 783  713.7031
 784  693.0686
 785  711.4771
 786  720.3423
 787  709.9494
 788  650.3734
 789  607.4983
 790  621.8743
 791  649.289
 792  548.0132
 793  448.4721
 794  437.754
 795  545.9085
 796  558.9199
 797  607.7038
 798  523.408
 799  533.0495
 800  555.137
 801  672.4412
 802  680.5056
 803  747.673
 804  723.7968
 805  631.9325
 806  528.6543
 807  632.1404
 808  611.9467
 809  628.8084
 810  528.8229
 811  559.0554
 812  547.9229
 813  584.5949
 814  615.9151
 815  471.6224
 816  401.257
 817  336.2503
 818  415.4645
 819  500.6886
 820  574.5862
 821  708.7563
 822  739.2423
 823  777.5152
 824  608.5204
 825  580.3427
 826  656.5103
 827  814.8202
 828  810.4075
 829  733.3023
 830  664.0792
 831  641.6144
 832  615.7091
 833  575.4128
 834  581.2565
 835  636.2899
 836  687.1812
 837  744.8732
 838  765.3765
 839  667.1846
 840  520.0186
 841  529.1871
 842  590.969
 843  553.5245
 844  540.754
 845  591.21
 846  656.6437
 847  586.0639
 848  506.2281
 849  428.6057
 850  367.4848
 851  340.7454
 852  353.3444
 853  378.7936
 854  437.1619
 855  457.5299
 856  503.2168
 857  523.8189
 858  520.2236
 859  474.4329
 860  408.5916
 861  376.7538
 862  378.9454
 863  421.4136
 864  367.3983
 865  488.4969
 866  536.6572
 867  568.7979
 868  512.2794
 869  665.2244
 870  671.6898
 871  601.509
 872  480.4695
 873  525.0229
 874  612.7269
 875  589.0491
 876  618.5133
 877  585.9702
 878  617.2916
 879  609.8212
 880  663.8051
 881  720.0703
 882  666.0089
 883  595.6885
 884  512.0778
 885  498.2711
 886  484.851
 887  545.2959
 888  573.1236
 889  525.7166
 890  465.3163
 891  502.7494
 892  629.7985
 893  709.1191
 894  715.4551
 895  664.2991
 896  656.764
 897  659.2182
 898  615.9205
 899  527.0484
 900  545.6667
 901  651.2252
 902  818.36
 903  684.8465
 904  537.7225
 905  390.8099
 906  483.5495
 907  564.0313
 908  543.1718
 909  450.1992
 910  418.3363
 911  486.6594
 912  567.4429
 913  579.4047
 914  631.8791
 915  622.6639
 916  636.9413
 917  642.8011
 918  614.2079
 919  578.2729
 920  423.1309
 921  335.2397
 922  293.3779
 923  357.6512
 924  419.9201
 925  531.3519
 926  612.8527
 927  662.5526
 928  586.613
 929  521.8646
 930  431.7561
 931  428.3235
 932  524.9445
 933  550.0348
 934  566.024
 935  479.843
 936  515.6562
 937  520.4822
 938  503.6836
 939  445.6409
 940  379.7223
 941  283.1469
 942  248.9025
 943  419.8208
 944  583.9924
 945  665.444
 946  600.7929
 947  497.9171
 948  385.0453
 949  358.7644
 950  416.8172
 951  354.6002
 952  314.8024
 953  235.5356
 954  276.2033
 955  265.4316
 956  390.958
 957  487.2422
 958  558.707
 959  557.3199
 960  484.5453
 961  472.8951
 962  467.0857
 963  432.7088
 964  422.8443
 965  523.7278
 966  596.9648
 967  537.8992
 968  410.5113
 969  482.7877
 970  502.3911
 971  450.8156
 972  437.7962
 973  442.3809
 974  502.4039
 975  447.4828
 976  514.9371
 977  555.7827
 978  642.936
 979  594.8978
 980  538.1763
 981  484.8569
 982  560.2679
 983  607.541
 984  605.4671
 985  510.895
 986  512.6538
 987  476.0269
 988  530.9315
 989  539.335
 990  563.3784
 991  650.5773
 992  634.9858
 993  693.8995
 994  704.002
 995  649.4117
 996  543.6193
 997  410.073
 998  508.7832
 999  553.3093
1000  513.4489
1001  478.2867
1002  529.0377
1003  640.5016
1004  680.3533
1005  700.9088
1006  719.7849
1007  816.2637
1008  793.2022
1009  663.3281
1010  581.4683
1011  541.5694
1012  606.3831
1013  586.4982
1014  662.8364
1015  643.4745
1016  556.8578
1017  436.2821
1018  436.4078
1019  500.4271
1020  466.3667
1021  447.8461
1022  438.9439
1023  476.1713
