# Input file       =  1211715512.106801_cleaned.dat
# Candidate        =  PSR_0332+5434
# Telescope        =  AR
# Epoch_topo       =  58268.485313736121
# Epoch_bary       =  N/A
# T_sample         =  0.002
# Data Folded      =  7340032
# Data Avg         =  0.0603183667803283
# Data StdDev      =  2.90746318778432 
# Profile Bins     =  512
# Profile Avg      =  864.732925532152 
# Profile StdDev   =  348.119395627088 
# Reduced chi-sqr  =  1.111
# Prob(Noise)      <  0.042   (~1.7 sigma)
# P_topo (ms)      =  714.518752439912  +/- 0.000359
# P'_topo (s/s)    =  -0                +/- 1.9e-10
# P''_topo (s/s^2) =  0                 +/- 8.37e-14
# P_bary (ms)      =  N/A
# P'_bary (s/s)    =  N/A
# P''_bary (s/s^2) =  N/A
# P_orb (s)        =  N/A
# asin(i)/c (s)    =  N/A
# eccentricity     =  N/A
# w (rad)          =  N/A
# T_peri           =  N/A
######################################################
   0  686.5378
   1  722.3002
   2  829.8525
   3  860.1832
   4  1088.448
   5  842.5594
   6  719.3873
   7  791.2996
   8  721.5164
   9  673.6363
  10  563.8992
  11  929.3626
  12  944.593
  13  992.4874
  14  704.4894
  15  656.8395
  16  1192.273
  17  1181.31
  18  912.086
  19  736.6448
  20  789.3627
  21  822.7116
  22  891.8003
  23  1069.989
  24  914.5372
  25  502.1623
  26  711.1203
  27  1009.979
  28  1020.81
  29  657.2891
  30  748.3351
  31  554.8963
  32  601.9139
  33  543.7297
  34  412.7672
  35  536.6808
  36  587.3684
  37  1248.756
  38  1418.987
  39  1284.693
  40  1426.274
  41  1065.105
  42  920.7621
  43  837.4662
  44  701.9902
  45  1018.506
  46  1164.506
  47  1093.849
  48  1162.091
  49  1235.255
  50  1156.813
  51  888.8152
  52  908.5049
  53  1114.089
  54  1130.927
  55  1350.152
  56  1058.283
  57  738.0841
  58  887.1165
  59  1491.873
  60  1316.1
  61  1088.668
  62  975.1506
  63  1039.126
  64  763.1658
  65  859.1274
  66  1003.991
  67  1189.901
  68  1126.864
  69  898.2095
  70  791.6508
  71  967.0776
  72  916.6131
  73  1197.313
  74  1061.107
  75  828.7513
  76  613.4855
  77  605.8419
  78  754.6639
  79  693.389
  80  519.5173
  81  583.0222
  82  585.7026
  83  777.1757
  84  807.3537
  85  765.0323
  86  605.994
  87  363.4543
  88  513.2938
  89  736.9969
  90  611.222
  91  933.4357
  92  1032.071
  93  1063.19
  94  666.4059
  95  680.2709
  96  824.5002
  97  743.9011
  98  756.4229
  99  1192.215
 100  692.0939
 101  534.0584
 102  811.0176
 103  584.916
 104  433.7461
 105  696.5402
 106  829.3781
 107  855.8314
 108  739.9044
 109  1195.304
 110  936.1285
 111  556.7855
 112  818.3862
 113  860.4218
 114  971.8478
 115  875.2632
 116  873.0833
 117  724.8702
 118  673.8838
 119  655.7239
 120  826.5369
 121  1143.051
 122  972.4902
 123  1115.926
 124  1127.441
 125  970.4662
 126  840.6622
 127  906.5179
 128  1054.519
 129  985.6797
 130  870.4484
 131  435.2852
 132  582.7256
 133  608.6659
 134  644.6135
 135  683.0948
 136  744.8364
 137  949.1273
 138  844.5533
 139  1062.901
 140  1223.591
 141  1125.421
 142  825.2665
 143  875.7095
 144  781.5367
 145  750.0204
 146  857.8818
 147  831.7512
 148  984.3129
 149  1304.78
 150  1140.589
 151  930.1295
 152  829.3669
 153  1106.973
 154  1045.1
 155  988.6963
 156  1141.127
 157  827.2629
 158  708.443
 159  668.2462
 160  670.9597
 161  649.6836
 162  860.0645
 163  814.0306
 164  877.3361
 165  997.1815
 166  1062.5
 167  799.338
 168  727.2383
 169  1042.003
 170  928.0162
 171  756.4311
 172  754.5706
 173  909.3395
 174  1069.171
 175  853.9035
 176  726.6938
 177  530.2729
 178  1141.544
 179  1413.333
 180  1298.82
 181  1019.269
 182  752.8928
 183  486.0214
 184  325.9942
 185  868.7632
 186  851.801
 187  909.7761
 188  951.9051
 189  643.9226
 190  806.4336
 191  531.8932
 192  931.4645
 193  868.2668
 194  527.542
 195  707.3508
 196  1035.013
 197  893.5503
 198  954.4645
 199  1168.34
 200  1100.099
 201  956.8185
 202  1207.403
 203  1129.584
 204  1002.552
 205  973.3371
 206  1267.985
 207  942.75
 208  766.129
 209  845.3981
 210  1038.253
 211  1027.94
 212  846.558
 213  1239.015
 214  1457.298
 215  872.136
 216  933.8891
 217  1049.834
 218  1180.093
 219  753.5065
 220  688.4219
 221  883.1217
 222  1080.761
 223  1190.601
 224  1144.99
 225  893.4466
 226  632.4794
 227  1007.196
 228  1029.168
 229  1055.241
 230  1090.16
 231  1278.987
 232  1176.325
 233  1158.72
 234  1060.217
 235  986.3152
 236  1060.036
 237  1107.377
 238  937.1375
 239  968.853
 240  1124.806
 241  1066.418
 242  737.7397
 243  768.7719
 244  588.3896
 245  967.5577
 246  1141.889
 247  1028.668
 248  994.9444
 249  1063.892
 250  636.4095
 251  527.3167
 252  1046.537
 253  1377.223
 254  1054.401
 255  951.4011
 256  890.0411
 257  758.5282
 258  898.8279
 259  994.599
 260  671.7015
 261  838.2328
 262  1178.5
 263  1067.207
 264  856.4655
 265  800.5829
 266  976.6741
 267  882.1968
 268  799.9807
 269  993.2698
 270  727.3859
 271  924.678
 272  883.9583
 273  690.9706
 274  890.6002
 275  949.8052
 276  1018.351
 277  732.3688
 278  1022.645
 279  979.8064
 280  892.0378
 281  1059.443
 282  961.4666
 283  1053.779
 284  1038.615
 285  904.6611
 286  385.3921
 287  584.3195
 288  757.6417
 289  860.5196
 290  720.4738
 291  472.4701
 292  501.8498
 293  797.8315
 294  1362.577
 295  1400.47
 296  1612.218
 297  1840.717
 298  2196.912
 299  2305.133
 300  2333.412
 301  2293.26
 302  1760.617
 303  1206.93
 304  802.0251
 305  619.0524
 306  841.9058
 307  688.8413
 308  642.0974
 309  1010.425
 310  834.3757
 311  692.2737
 312  589.667
 313  340.6158
 314  686.5069
 315  791.9732
 316  574.8322
 317  462.0238
 318  788.0291
 319  793.6556
 320  532.3353
 321  611.2485
 322  831.2015
 323  768.0918
 324  993.3991
 325  886.0833
 326  864.7409
 327  755.9808
 328  658.565
 329  426.4226
 330  669.0305
 331  838.8369
 332  729.059
 333  734.5548
 334  718.2371
 335  722.6039
 336  1023.329
 337  620.6029
 338  288.9525
 339  450.7414
 340  599.7639
 341  520.8441
 342  656.0668
 343  731.6707
 344  857.3245
 345  913.6376
 346  1144.473
 347  814.4623
 348  555.97
 349  705.2121
 350  643.5886
 351  741.3513
 352  858.507
 353  793.3755
 354  766.0614
 355  677.8557
 356  921.1439
 357  1148.066
 358  1506.935
 359  1353.917
 360  1155.453
 361  1229.554
 362  1366.985
 363  881.4284
 364  1132.285
 365  1029.552
 366  917.7244
 367  834.1306
 368  887.6295
 369  919.0887
 370  872.8052
 371  878.5097
 372  391.3608
 373  601.3677
 374  1061.579
 375  1184.282
 376  1019.591
 377  642.403
 378  523.399
 379  799.0055
 380  1088.689
 381  945.6401
 382  975.2775
 383  1024.54
 384  559.5866
 385  441.9922
 386  851.228
 387  806.8563
 388  581.7121
 389  797.9328
 390  883.2823
 391  1086
 392  812.3372
 393  544.7972
 394  438.5628
 395  620.7723
 396  618.5944
 397  572.0465
 398  759.6139
 399  599.6241
 400  608.1297
 401  640.2159
 402  537.3456
 403  709.7881
 404  393.539
 405  706.3
 406  895.7495
 407  386.7721
 408  518.3768
 409  849.2819
 410  631.553
 411  762.0344
 412  744.769
 413  433.9218
 414  383.1913
 415  727.3076
 416  935.4712
 417  551.3384
 418  929.7294
 419  889.473
 420  497.3073
 421  488.0441
 422  529.0369
 423  668.9147
 424  627.7729
 425  808.783
 426  888.3273
 427  881.3805
 428  800.2331
 429  1107.779
 430  880.5601
 431  498.1648
 432  720.7075
 433  1114.031
 434  1089.493
 435  1067.618
 436  893.9473
 437  913.9006
 438  937.4229
 439  847.1077
 440  695.4392
 441  991.0244
 442  979.4539
 443  1297.145
 444  1074.405
 445  675.089
 446  901.526
 447  837.5737
 448  552.8927
 449  684.6976
 450  818.8139
 451  1068.973
 452  844.4631
 453  945.0421
 454  776.9155
 455  660.8659
 456  1059.108
 457  1025.684
 458  893.6121
 459  932.9052
 460  728.759
 461  494.0297
 462  387.8337
 463  506.2601
 464  470.4057
 465  740.7728
 466  645.4904
 467  903.9626
 468  889.9062
 469  1073.653
 470  599.2203
 471  936.8778
 472  1188.139
 473  783.5319
 474  490.3679
 475  532.6008
 476  941.3668
 477  1285.105
 478  1040.48
 479  938.6982
 480  867.0153
 481  547.5728
 482  820.4007
 483  811.376
 484  673.4558
 485  711.0575
 486  844.8713
 487  815.5057
 488  877.6478
 489  864.641
 490  968.5273
 491  980.5889
 492  753.4519
 493  894.1355
 494  1034.971
 495  864.3016
 496  1021.345
 497  818.3845
 498  553.6732
 499  538.2841
 500  653.198
 501  521.6319
 502  508.0658
 503  761.725
 504  645.2419
 505  643.6256
 506  631.386
 507  478.2908
 508  324.4636
 509  812.3898
 510  956.6413
 511  769.6406
