# Input file       =  1211772099.121053_cleaned.dat
# Candidate        =  PSR_0332+5434
# Telescope        =  AR
# Epoch_topo       =  58269.140256030703
# Epoch_bary       =  N/A
# T_sample         =  0.002
# Data Folded      =  7208960
# Data Avg         =  0.214859309354373
# Data StdDev      =  4.91236821307752 
# Profile Bins     =  256
# Profile Avg      =  6050.65393880455 
# Profile StdDev   =  824.341639575279 
# Reduced chi-sqr  =  1.364
# Prob(Noise)      <  9.7e-05   (~3.7 sigma)
# P_topo (ms)      =  714.517768169159  +/- 4.53e-05
# P'_topo (s/s)    =  -0                +/- 2.43e-11
# P''_topo (s/s^2) =  0                 +/- 1.09e-14
# P_bary (ms)      =  N/A
# P'_bary (s/s)    =  N/A
# P''_bary (s/s^2) =  N/A
# P_orb (s)        =  N/A
# asin(i)/c (s)    =  N/A
# eccentricity     =  N/A
# w (rad)          =  N/A
# T_peri           =  N/A
######################################################
   0  5028.615
   1  5055.974
   2  6149.995
   3  5028.976
   4  4907.05
   5  5434.146
   6  6488.431
   7  5198.837
   8  5551.596
   9  5551.593
  10  6354.748
  11  4929.332
  12  4760.219
  13  5285.917
  14  6517.596
  15  5391.344
  16  4676.046
  17  5653.686
  18  6299.667
  19  5861.63
  20  5441.766
  21  6083.662
  22  7062.179
  23  6402.214
  24  5775.134
  25  5447.781
  26  5734.124
  27  6217.697
  28  4372.92
  29  6196.692
  30  7172.408
  31  6904.742
  32  4675.626
  33  5949.764
  34  6009.307
  35  6743.256
  36  5069.598
  37  6676.762
  38  6834.544
  39  7009.44
  40  6067.253
  41  6698.237
  42  6399.985
  43  6572.839
  44  5837.14
  45  6013.313
  46  7015.465
  47  7559.896
  48  6622.197
  49  5208.717
  50  5770.16
  51  6622.804
  52  5883.117
  53  6270.24
  54  6813.217
  55  6921.591
  56  6530.146
  57  5856.785
  58  6147.129
  59  7054.189
  60  6389.259
  61  6053.09
  62  6422.98
  63  7274.709
  64  6115.916
  65  5665.826
  66  6030.019
  67  5366.546
  68  6224.818
  69  5267.745
  70  5746.858
  71  6555.859
  72  7568.618
  73  6547.512
  74  6324.794
  75  6452.687
  76  6114.028
  77  5360.929
  78  5974.207
  79  6835.896
  80  7051.416
  81  5969.499
  82  5990.557
  83  6029.069
  84  6567.401
  85  6615.1
  86  5980.786
  87  5969.841
  88  7290.409
  89  6589.377
  90  5107.887
  91  5433.159
  92  5597.428
  93  6284.164
  94  6336.448
  95  6602.459
  96  6831.554
  97  6363.04
  98  6317.732
  99  5883.721
 100  6889.915
 101  7278.302
 102  5617.524
 103  6545.299
 104  7035.309
 105  7448.91
 106  6225.334
 107  5879.935
 108  5895.276
 109  6454.139
 110  6349.714
 111  6597.396
 112  6170.354
 113  6853.294
 114  7058.746
 115  5670.005
 116  6116.004
 117  7000.74
 118  6299.752
 119  5333.553
 120  6177.586
 121  7120.845
 122  7263.991
 123  5941.65
 124  6284.468
 125  6495.925
 126  6070.83
 127  6072.295
 128  6230.978
 129  7052.052
 130  7025.127
 131  6373.648
 132  5589.522
 133  6642.616
 134  6982.668
 135  6167.294
 136  6508.277
 137  7190.532
 138  7517.94
 139  6351.958
 140  5647.164
 141  6100.28
 142  6965.117
 143  5926.031
 144  5605.013
 145  6338.188
 146  8362.866
 147  8226.832
 148  8237.396
 149  10251.59
 150  9236.475
 151  6732.668
 152  6332.013
 153  6999.509
 154  7155.912
 155  7190.291
 156  6119.75
 157  6811.574
 158  6584.084
 159  6420.194
 160  6077.636
 161  6338.056
 162  7188.872
 163  7067.934
 164  5813.219
 165  5509.184
 166  6174.616
 167  6363.339
 168  5763.821
 169  6140.071
 170  7170.972
 171  6789.121
 172  5519.982
 173  5515.197
 174  5411.921
 175  6403.036
 176  5408.102
 177  5639.092
 178  5689.644
 179  7518.847
 180  6920.564
 181  4969.938
 182  5688.368
 183  6499.75
 184  5621.605
 185  5357.908
 186  5753.489
 187  6313.783
 188  5568.721
 189  5639.226
 190  5060.591
 191  5611.575
 192  6414.06
 193  4644.188
 194  5404.923
 195  5629.939
 196  6534.096
 197  4972.588
 198  5313.644
 199  5697.418
 200  6104.558
 201  4944.373
 202  4971.855
 203  4949.003
 204  5101.22
 205  4693.765
 206  4404.413
 207  5094.074
 208  5289.208
 209  4007.887
 210  4607.489
 211  6036.164
 212  6123.482
 213  5251.564
 214  3953.142
 215  5236.223
 216  6009.374
 217  5815.275
 218  5218.902
 219  5148.951
 220  5441.285
 221  6067.841
 222  5256.534
 223  4665.957
 224  5333.524
 225  6001.264
 226  4846.531
 227  5319.99
 228  5525.428
 229  5928.904
 230  5031.481
 231  5640.271
 232  4722.418
 233  6082.368
 234  5840.134
 235  5831.52
 236  5988.349
 237  5894.085
 238  6273.544
 239  4923.608
 240  5028.846
 241  5665.904
 242  5174.462
 243  4755.283
 244  6223.95
 245  6365.805
 246  5264.938
 247  5266.231
 248  6092.487
 249  6119.901
 250  4807.565
 251  4623.631
 252  5411.78
 253  6802.757
 254  5813.541
 255  4959.903
