# Input file       =  1211543218.108966_cleaned.dat
# Candidate        =  PSR_0332+5434
# Telescope        =  AR
# Epoch_topo       =  58266.491170242662
# Epoch_bary       =  N/A
# T_sample         =  0.002
# Data Folded      =  7340032
# Data Avg         =  0.0353442666986959
# Data StdDev      =  1.00008285945492 
# Profile Bins     =  512
# Profile Avg      =  506.705779910655 
# Profile StdDev   =  119.742957390896 
# Reduced chi-sqr  =  1.127
# Prob(Noise)      <  0.0244   (~2.0 sigma)
# P_topo (ms)      =  714.520699993792  +/- 0.000243
# P'_topo (s/s)    =  -0                +/- 1.28e-10
# P''_topo (s/s^2) =  0                 +/- 5.66e-14
# P_bary (ms)      =  N/A
# P'_bary (s/s)    =  N/A
# P''_bary (s/s^2) =  N/A
# P_orb (s)        =  N/A
# asin(i)/c (s)    =  N/A
# eccentricity     =  N/A
# w (rad)          =  N/A
# T_peri           =  N/A
######################################################
   0  577.2468
   1  566.9542
   2  513.7665
   3  484.3382
   4  493.7604
   5  483.3542
   6  393.7904
   7  383.2761
   8  448.8361
   9  462.3772
  10  531.3961
  11  552.635
  12  545.9902
  13  579.735
  14  638.0177
  15  494.625
  16  493.6421
  17  691.6725
  18  568.9961
  19  420.8963
  20  384.2711
  21  397.7422
  22  408.5752
  23  434.2503
  24  459.1397
  25  512.4524
  26  555.5492
  27  466.0074
  28  367.5344
  29  416.5301
  30  342.7757
  31  360.4444
  32  467.5329
  33  442.087
  34  469.7279
  35  553.4416
  36  460.9612
  37  486.3364
  38  507.5685
  39  542.2845
  40  450.721
  41  459.1445
  42  511.4409
  43  488.5435
  44  579.7886
  45  524.9514
  46  464.7887
  47  479.8286
  48  520.4548
  49  524.96
  50  558.7336
  51  532.8271
  52  303.1017
  53  438.77
  54  533.4467
  55  472.5547
  56  491.1851
  57  496.0041
  58  319.6299
  59  337.7075
  60  380.1407
  61  420.6888
  62  396.8711
  63  436.4169
  64  488.1665
  65  460.8943
  66  520.4872
  67  477.9754
  68  454.8575
  69  457.4496
  70  361.3678
  71  372.6845
  72  386.3319
  73  397.9163
  74  331.0517
  75  380.6512
  76  518.3569
  77  648.9591
  78  517.1909
  79  434.1819
  80  472.7671
  81  556.3182
  82  540.597
  83  552.4
  84  543.8458
  85  424.273
  86  427.677
  87  392.3809
  88  407.9532
  89  530.3318
  90  455.7304
  91  412.7076
  92  488.4361
  93  445.9146
  94  361.504
  95  376.9531
  96  214.4062
  97  413.8769
  98  517.5845
  99  540.8757
 100  558.6395
 101  586.0561
 102  612.149
 103  570.8931
 104  537.6811
 105  546.359
 106  556.0132
 107  455.13
 108  431.1644
 109  435.4564
 110  441.1318
 111  424.0424
 112  452.5036
 113  390.1671
 114  390.4934
 115  523.3192
 116  460.9735
 117  519.7195
 118  575.3879
 119  533.5999
 120  453.6148
 121  499.5035
 122  546.1131
 123  548.8129
 124  598.4142
 125  474.681
 126  417.7272
 127  548.2761
 128  543.4139
 129  529.5441
 130  654.3801
 131  628.0493
 132  499.2935
 133  550.7377
 134  582.156
 135  574.2689
 136  610.6244
 137  539.8421
 138  399.7686
 139  362.8074
 140  489.5292
 141  449.2562
 142  463.8523
 143  507.9568
 144  581.4342
 145  467.5766
 146  497.2839
 147  413.6864
 148  348.446
 149  383.6901
 150  403.6076
 151  464.4949
 152  546.3472
 153  424.9875
 154  527.9725
 155  499.8066
 156  518.6385
 157  548.6216
 158  461.2985
 159  493.6713
 160  558.873
 161  471.9015
 162  588.3113
 163  588.4407
 164  515.7907
 165  416.0497
 166  435.8687
 167  443.2036
 168  395.8011
 169  462.8418
 170  489.623
 171  557.6282
 172  442.6042
 173  507.1661
 174  435.8428
 175  530.4547
 176  467.1292
 177  481.7269
 178  501.1812
 179  454.6129
 180  445.6979
 181  501.5067
 182  499.9958
 183  417.5714
 184  498.0469
 185  486.0517
 186  545.5007
 187  594.7588
 188  506.9705
 189  450.8695
 190  412.9589
 191  381.147
 192  465.0594
 193  460.2896
 194  472.4889
 195  436.0789
 196  376.9997
 197  535.0026
 198  594.4673
 199  497.5322
 200  485.0919
 201  413.2831
 202  513.4937
 203  547.8387
 204  443.373
 205  449.2678
 206  489.9088
 207  492.8306
 208  523.5732
 209  506.5121
 210  502.6203
 211  646.5144
 212  620.8065
 213  642.9743
 214  693.4802
 215  576.0693
 216  453.8891
 217  454.007
 218  573.6478
 219  509.2792
 220  498.6729
 221  609.7982
 222  561.3884
 223  548.8839
 224  476.8578
 225  462.0145
 226  516.933
 227  483.6473
 228  441.0418
 229  491.443
 230  418.0034
 231  433.1104
 232  482.0657
 233  477.4991
 234  419.386
 235  367.2711
 236  250.2667
 237  402.3223
 238  410.5779
 239  402.8363
 240  289.5616
 241  454.3297
 242  492.9297
 243  491.6128
 244  551.0328
 245  555.4398
 246  440.9871
 247  585.8894
 248  682.824
 249  541.4733
 250  452.5952
 251  487.0885
 252  426.9505
 253  401.1008
 254  608.0489
 255  459.8172
 256  439.7179
 257  455.0507
 258  603.1182
 259  517.5402
 260  462.0535
 261  526.0135
 262  390.0952
 263  506.7794
 264  503.4033
 265  480.7502
 266  485.1434
 267  512.3715
 268  485.0389
 269  553.942
 270  500.4829
 271  505.057
 272  504.5461
 273  390.4332
 274  527.8061
 275  514.1264
 276  472.6595
 277  560.1167
 278  615.4747
 279  610.4695
 280  619.2599
 281  472.5646
 282  514.538
 283  502.2544
 284  537.0463
 285  542.6309
 286  583.7126
 287  656.2352
 288  567.2614
 289  560.4911
 290  559.6786
 291  573.9482
 292  630.6751
 293  583.6302
 294  505.6415
 295  462.8065
 296  560.4623
 297  609.8082
 298  541.4764
 299  508.1349
 300  490.5287
 301  471.0363
 302  524.3068
 303  425.2684
 304  444.3376
 305  416.4325
 306  421.4138
 307  451.7857
 308  559.1478
 309  536.2048
 310  554.5368
 311  560.343
 312  537.0847
 313  576.2888
 314  525.3777
 315  537.6467
 316  601.8121
 317  578.1705
 318  539.2493
 319  573.1743
 320  598.3689
 321  573.3277
 322  457.9651
 323  532.608
 324  622.6735
 325  563.3394
 326  549.9295
 327  590.1626
 328  512.4445
 329  517.7901
 330  493.1293
 331  573.7805
 332  518.8619
 333  586.8092
 334  608.0977
 335  473.1501
 336  478.7182
 337  622.3099
 338  436.7184
 339  334.5595
 340  382.7579
 341  500.6521
 342  501.7565
 343  434.4061
 344  400.1371
 345  450.7324
 346  427.6651
 347  381.2121
 348  378.7462
 349  356.5477
 350  366.6711
 351  405.9527
 352  401.2737
 353  457.2206
 354  419.2444
 355  471.3063
 356  592.1082
 357  481.3235
 358  407.786
 359  347.0069
 360  317.1303
 361  455.7249
 362  604.4157
 363  535.329
 364  532.3895
 365  569.3905
 366  746.6017
 367  816.2244
 368  986.6742
 369  1183.145
 370  1043.357
 371  760.8964
 372  588.4989
 373  586.6804
 374  630.1609
 375  575.9653
 376  511.4239
 377  528.436
 378  520.8954
 379  504.3011
 380  400.082
 381  459.2023
 382  570.0089
 383  550.2056
 384  443.7533
 385  469.1009
 386  498.8977
 387  504.3258
 388  476.8665
 389  432.6937
 390  423.2
 391  335.766
 392  423.5022
 393  531.4012
 394  378.117
 395  373.5817
 396  433.6582
 397  563.7953
 398  453.7266
 399  284.6879
 400  444.0437
 401  453.0293
 402  500.4906
 403  640.8052
 404  551.2081
 405  530.9689
 406  514.603
 407  573.6578
 408  660.5166
 409  490.5084
 410  461.8461
 411  532.3606
 412  596.9461
 413  508.4382
 414  542.5411
 415  595.9833
 416  588.7745
 417  607.6621
 418  600.8303
 419  628.1915
 420  679.9116
 421  598.1633
 422  597.2828
 423  644.9377
 424  628.4394
 425  621.13
 426  554.4634
 427  472.183
 428  414.8419
 429  503.6519
 430  529.3954
 431  540.4081
 432  603.2469
 433  628.0712
 434  617.4963
 435  493.092
 436  426.9786
 437  452.0043
 438  502.2522
 439  553.0893
 440  442.8038
 441  419.6797
 442  589.619
 443  597.1729
 444  470.3016
 445  598.125
 446  665.4988
 447  515.1006
 448  451.3832
 449  433.8314
 450  496.8049
 451  572.7879
 452  499.772
 453  418.4436
 454  501.924
 455  528.2722
 456  447.6393
 457  483.5187
 458  601.3909
 459  704.726
 460  531.6811
 461  440.9586
 462  487.2587
 463  612.7359
 464  650.7038
 465  571.6675
 466  542.6458
 467  572.166
 468  525.6923
 469  517.9117
 470  409.049
 471  477.7841
 472  418.1007
 473  550.9123
 474  509.5679
 475  421.3189
 476  461.3549
 477  493.7715
 478  527.3501
 479  591.2199
 480  598.3259
 481  513.0278
 482  471.8946
 483  512.3001
 484  524.0462
 485  536.5035
 486  516.4553
 487  604.2432
 488  678.1035
 489  661.1334
 490  590.4722
 491  553.5051
 492  532.5745
 493  440.4801
 494  649.7366
 495  621.6151
 496  512.9088
 497  557.6642
 498  618.1719
 499  661.8445
 500  727.273
 501  639.5212
 502  557.4888
 503  469.2176
 504  449.719
 505  452.1666
 506  597.6559
 507  613.999
 508  603.6989
 509  559.9059
 510  502.4827
 511  554.5284
