# Input file       =  1211528298.098192_cleaned.dat
# Candidate        =  PSR_0332+5434
# Telescope        =  AR
# Epoch_topo       =  58266.318484932781
# Epoch_bary       =  N/A
# T_sample         =  0.002
# Data Folded      =  7340032
# Data Avg         =  0.190917391087818
# Data StdDev      =  4.24363314184896 
# Profile Bins     =  1024
# Profile Avg      =  1368.75462311714 
# Profile StdDev   =  359.283134359169 
# Reduced chi-sqr  =  0.723
# Prob(Noise)      <  1   (~0.0 sigma)
# P_topo (ms)      =  714.520534287052  +/- 0.000454
# P'_topo (s/s)    =  -0                +/- 2.4e-10
# P''_topo (s/s^2) =  0                 +/- 1.06e-13
# P_bary (ms)      =  N/A
# P'_bary (s/s)    =  N/A
# P''_bary (s/s^2) =  N/A
# P_orb (s)        =  N/A
# asin(i)/c (s)    =  N/A
# eccentricity     =  N/A
# w (rad)          =  N/A
# T_peri           =  N/A
######################################################
   0  1259.434
   1  1354.21
   2  1205.742
   3  1130.12
   4  1197.268
   5  1364.814
   6  1337.029
   7  1227.556
   8  1307.369
   9  1415.26
  10  1416.834
  11  1393.862
  12  1460.466
  13  1418.105
  14  1311.807
  15  1254.475
  16  1312.046
  17  1324.534
  18  1313.127
  19  1362.379
  20  1403.772
  21  1393.28
  22  1349.102
  23  1432.452
  24  1488.285
  25  1484.354
  26  1379.27
  27  1377.385
  28  1412.864
  29  1452.51
  30  1429.771
  31  1372.914
  32  1465.841
  33  1511.136
  34  1473.442
  35  1375.415
  36  1432.336
  37  1389.186
  38  1452.148
  39  1310.868
  40  1291.898
  41  1229.524
  42  1331.622
  43  1331.502
  44  1324.179
  45  1369.314
  46  1368.822
  47  1402.507
  48  1365.479
  49  1463.176
  50  1523.351
  51  1557.622
  52  1575.451
  53  1582.601
  54  1607.345
  55  1662.343
  56  1586.375
  57  1561.294
  58  1441.999
  59  1573.221
  60  1655.612
  61  1704.486
  62  1645.003
  63  1587.582
  64  1553.528
  65  1561.295
  66  1550.885
  67  1505.703
  68  1550.357
  69  1503.895
  70  1502.672
  71  1489.718
  72  1559.712
  73  1514.986
  74  1529.453
  75  1572.772
  76  1559.699
  77  1439.957
  78  1380.524
  79  1335.553
  80  1452.729
  81  1529.921
  82  1514.234
  83  1488.915
  84  1475.605
  85  1598.72
  86  1519.695
  87  1376.996
  88  1289.692
  89  1422.95
  90  1584.448
  91  1664.428
  92  1561.273
  93  1473.248
  94  1359.757
  95  1325.047
  96  1418.704
  97  1501.509
  98  1618.441
  99  1547.86
 100  1516.966
 101  1485.868
 102  1518.668
 103  1562.404
 104  1706.273
 105  1664.527
 106  1577.301
 107  1329.953
 108  1279.027
 109  1317.872
 110  1429.204
 111  1568.422
 112  1593.587
 113  1592.206
 114  1575.763
 115  1641.383
 116  1531.987
 117  1375.204
 118  1362.438
 119  1427.633
 120  1364.271
 121  1298.934
 122  1202.153
 123  1301.804
 124  1228.152
 125  1236.933
 126  1283.639
 127  1344.838
 128  1522.369
 129  1668.402
 130  1787.361
 131  1712.232
 132  1591.298
 133  1559.282
 134  1470.828
 135  1455.478
 136  1400.228
 137  1481.044
 138  1567.875
 139  1525.932
 140  1543.634
 141  1488.462
 142  1563.168
 143  1545.197
 144  1533.552
 145  1437.053
 146  1362.255
 147  1287.522
 148  1255.427
 149  1385.994
 150  1527.798
 151  1610.766
 152  1489.729
 153  1449.151
 154  1420.353
 155  1390.115
 156  1405.451
 157  1348.87
 158  1420.174
 159  1385.555
 160  1405.095
 161  1291.454
 162  1270.101
 163  1263.625
 164  1235.887
 165  1238.553
 166  1177.146
 167  1290.185
 168  1272.731
 169  1198.547
 170  1094.402
 171  1192.022
 172  1303.684
 173  1350.941
 174  1217.694
 175  1124.414
 176  1078.867
 177  1096.162
 178  1089.148
 179  1168.47
 180  1156.609
 181  1013.236
 182  1006.72
 183  1154.74
 184  1304.06
 185  1252.768
 186  1207.087
 187  1226.545
 188  1236.455
 189  1178.888
 190  1195.474
 191  1241.59
 192  1270.965
 193  1337.797
 194  1308.855
 195  1255.901
 196  1175.517
 197  1227.957
 198  1376.44
 199  1454.283
 200  1415.147
 201  1336.177
 202  1352.731
 203  1420.427
 204  1545.913
 205  1513.167
 206  1470.648
 207  1356.353
 208  1482.401
 209  1634.877
 210  1664.322
 211  1568.422
 212  1533.062
 213  1539.852
 214  1541.371
 215  1505.011
 216  1588.493
 217  1601.906
 218  1603.13
 219  1577.065
 220  1596.449
 221  1548.949
 222  1373.077
 223  1292.115
 224  1445.038
 225  1585.106
 226  1568.136
 227  1526.94
 228  1575.013
 229  1724.273
 230  1769.637
 231  1726.836
 232  1525.634
 233  1439.952
 234  1417.99
 235  1419.231
 236  1337.743
 237  1360.177
 238  1501.325
 239  1580.874
 240  1531.085
 241  1446.558
 242  1420.704
 243  1515.487
 244  1544.803
 245  1562.862
 246  1487.715
 247  1418.097
 248  1465.105
 249  1441.861
 250  1421.548
 251  1568.342
 252  1671.994
 253  1779.564
 254  1744.318
 255  1770.793
 256  1702.715
 257  1452.361
 258  1310.01
 259  1257.174
 260  1425.935
 261  1474.008
 262  1379.29
 263  1175.818
 264  945.3382
 265  950.3307
 266  1093.744
 267  1307.603
 268  1451.826
 269  1482.169
 270  1458.532
 271  1346.022
 272  1257.44
 273  1256.903
 274  1433.62
 275  1488.38
 276  1548.116
 277  1526.795
 278  1605.288
 279  1642.709
 280  1648.124
 281  1661.822
 282  1571.6
 283  1532.709
 284  1486.521
 285  1424.258
 286  1349.926
 287  1261.407
 288  1240.476
 289  1268.403
 290  1356.828
 291  1453.222
 292  1524.992
 293  1549.624
 294  1574.555
 295  1565.847
 296  1587.13
 297  1557.801
 298  1462.282
 299  1431.795
 300  1478.143
 301  1603.526
 302  1640.664
 303  1652.957
 304  1608.51
 305  1519.477
 306  1499.185
 307  1601.829
 308  1726.76
 309  1689.061
 310  1640.511
 311  1513.399
 312  1495.533
 313  1519.909
 314  1518.314
 315  1504.464
 316  1396.664
 317  1409.472
 318  1520.015
 319  1623.802
 320  1564.191
 321  1419.556
 322  1376.943
 323  1354.83
 324  1384.747
 325  1481.724
 326  1469.207
 327  1459.752
 328  1349.693
 329  1360.914
 330  1303.815
 331  1290.722
 332  1204.222
 333  1224.609
 334  1261.467
 335  1390.813
 336  1472.396
 337  1390.46
 338  1373.833
 339  1313.971
 340  1380.796
 341  1313.889
 342  1187.132
 343  1174.161
 344  1204.731
 345  1189.265
 346  1189.176
 347  1161.095
 348  1175.191
 349  1117.166
 350  1180.209
 351  1243.113
 352  1346.361
 353  1331.597
 354  1367.929
 355  1343.098
 356  1412.349
 357  1258.115
 358  1225.056
 359  1316.256
 360  1420.267
 361  1436.737
 362  1173.571
 363  1109.397
 364  994.0565
 365  1092.975
 366  1058.259
 367  1172.298
 368  1200.605
 369  1253.35
 370  1243.91
 371  1238.967
 372  1253.139
 373  1155.982
 374  1282.137
 375  1360.84
 376  1458.198
 377  1383.093
 378  1330.716
 379  1290.542
 380  1247.248
 381  1272.34
 382  1308.174
 383  1232.348
 384  1295.839
 385  1372.21
 386  1450.376
 387  1286.552
 388  1261.293
 389  1331.306
 390  1540.54
 391  1567.884
 392  1481.976
 393  1467.182
 394  1431.817
 395  1460.042
 396  1429.203
 397  1430.847
 398  1354.607
 399  1364.676
 400  1406.238
 401  1468.119
 402  1436.672
 403  1441.861
 404  1367.376
 405  1432.024
 406  1450.481
 407  1575.018
 408  1487.095
 409  1493.446
 410  1496.698
 411  1471.957
 412  1439.06
 413  1355.97
 414  1290.025
 415  1190.944
 416  1246.253
 417  1420.183
 418  1511.194
 419  1523.384
 420  1558.959
 421  1623.54
 422  1598.822
 423  1612.729
 424  1659.112
 425  1713.482
 426  1770.133
 427  1650.272
 428  1554.317
 429  1371.144
 430  1480.046
 431  1506.839
 432  1627.94
 433  1454.996
 434  1349.625
 435  1205.956
 436  1188.707
 437  1312.92
 438  1496.155
 439  1573.522
 440  1510.797
 441  1410.488
 442  1477.213
 443  1525.552
 444  1456.802
 445  1411.966
 446  1376.691
 447  1349.586
 448  1242.498
 449  1369.718
 450  1344.301
 451  1335.629
 452  1216.731
 453  1269.389
 454  1400.378
 455  1538.761
 456  1661.705
 457  1689.968
 458  1562.085
 459  1408.661
 460  1297.282
 461  1315.52
 462  1361.921
 463  1385.46
 464  1364.647
 465  1413.039
 466  1374.047
 467  1446.217
 468  1356.246
 469  1328.245
 470  1356.395
 471  1398.448
 472  1273.806
 473  1218.593
 474  1213.581
 475  1246.04
 476  1261.073
 477  1263.552
 478  1256.061
 479  1321.624
 480  1370.697
 481  1449.954
 482  1345.157
 483  1229.073
 484  1189.178
 485  1164.71
 486  1176.833
 487  1188.182
 488  1233.284
 489  1235.676
 490  1343.279
 491  1361.624
 492  1370.954
 493  1269.289
 494  1257.17
 495  1199.947
 496  1274.659
 497  1393.232
 498  1428.543
 499  1381.013
 500  1351.413
 501  1280.054
 502  1258.989
 503  1301.568
 504  1517.129
 505  1350.067
 506  1282.57
 507  1243.163
 508  1359.54
 509  1427.205
 510  1368.183
 511  1425.659
 512  1412.581
 513  1407.5
 514  1342.159
 515  1318.481
 516  1309.086
 517  1333.299
 518  1339.732
 519  1341.791
 520  1308.033
 521  1207.347
 522  1157.144
 523  1230.086
 524  1244.378
 525  1279.323
 526  1285.484
 527  1543.153
 528  1626.199
 529  1614.986
 530  1544.794
 531  1412.925
 532  1318.639
 533  1274.055
 534  1337.238
 535  1355.851
 536  1156.935
 537  1065.416
 538  971.9882
 539  1032.549
 540  1150.5
 541  1226.449
 542  1197.939
 543  1246.41
 544  1204.649
 545  1190.782
 546  1190.468
 547  1329.746
 548  1404.557
 549  1371.028
 550  1314.543
 551  1193.278
 552  1217.764
 553  1226.543
 554  1302.694
 555  1280.25
 556  1206.721
 557  1180.111
 558  1327.598
 559  1503.688
 560  1521.739
 561  1466.714
 562  1484.046
 563  1411.426
 564  1338.56
 565  1321.411
 566  1375.672
 567  1418.412
 568  1403.469
 569  1403.613
 570  1415.943
 571  1384.01
 572  1182.397
 573  1103.543
 574  1193.067
 575  1388.309
 576  1441.282
 577  1391.099
 578  1500.914
 579  1541.079
 580  1581.337
 581  1491.275
 582  1507.394
 583  1487.948
 584  1474.478
 585  1451.023
 586  1517.871
 587  1515.542
 588  1565.992
 589  1551.574
 590  1571.581
 591  1589.858
 592  1682.628
 593  1722.145
 594  1784.168
 595  2001.711
 596  2133.801
 597  2200.684
 598  2122.409
 599  2085.624
 600  1947.998
 601  1728.429
 602  1569.684
 603  1444.516
 604  1332.31
 605  1279.174
 606  1189.034
 607  1327.851
 608  1360.304
 609  1360.517
 610  1122.354
 611  1061.958
 612  977.0339
 613  1135.044
 614  1114.807
 615  1151.669
 616  1098.443
 617  1174.868
 618  1126.407
 619  1102.504
 620  1108.999
 621  1217.382
 622  1295.643
 623  1414.802
 624  1503
 625  1535.663
 626  1411.044
 627  1343.166
 628  1291.034
 629  1352.58
 630  1404.668
 631  1436.515
 632  1326.258
 633  1247.349
 634  1194.562
 635  1331.942
 636  1326.858
 637  1325.089
 638  1229.16
 639  1226.161
 640  1371.665
 641  1394.502
 642  1428.391
 643  1229.706
 644  1176.774
 645  1101.223
 646  1164.693
 647  1178.673
 648  1259.089
 649  1151.28
 650  1144.65
 651  1109.971
 652  1124.373
 653  1146.016
 654  1172.571
 655  1125.275
 656  1097.241
 657  1060.454
 658  1212.903
 659  1283.492
 660  1286.085
 661  1252.638
 662  1343.856
 663  1494.191
 664  1508.703
 665  1497.964
 666  1458.493
 667  1389.457
 668  1371.359
 669  1447.418
 670  1586.196
 671  1618.6
 672  1490.659
 673  1353.691
 674  1272.549
 675  1296.243
 676  1308.239
 677  1351.495
 678  1338.457
 679  1431.881
 680  1552.703
 681  1552.116
 682  1427.266
 683  1229.625
 684  1225.136
 685  1198.02
 686  1188.594
 687  1047.789
 688  1095.178
 689  1210.13
 690  1267.539
 691  1192.574
 692  1198.174
 693  1232.964
 694  1276.249
 695  1292.15
 696  1369.676
 697  1380.578
 698  1354.203
 699  1231.913
 700  1334.484
 701  1389.459
 702  1416.203
 703  1387.84
 704  1278.432
 705  1248.158
 706  1228.044
 707  1270.147
 708  1255.891
 709  1245.005
 710  1279.444
 711  1162.842
 712  1183.879
 713  1114.842
 714  1153.518
 715  1129.073
 716  1151.582
 717  1188.725
 718  1196.633
 719  1236.468
 720  1288.5
 721  1360.82
 722  1318.8
 723  1288.097
 724  1350.986
 725  1359.184
 726  1239.417
 727  1112.88
 728  1187.647
 729  1255.6
 730  1328.227
 731  1303.38
 732  1346.47
 733  1383.407
 734  1451.953
 735  1403.132
 736  1341.8
 737  1348.575
 738  1427.066
 739  1475.798
 740  1393.403
 741  1416.423
 742  1414.515
 743  1480.765
 744  1399.299
 745  1481.457
 746  1439.073
 747  1373.51
 748  1212.429
 749  1170.039
 750  1244.279
 751  1383.406
 752  1515.197
 753  1522.578
 754  1501.036
 755  1373.525
 756  1330.805
 757  1374.901
 758  1379.022
 759  1324.553
 760  1209.798
 761  1212.797
 762  1262.521
 763  1188.824
 764  1213.41
 765  1192.895
 766  1236.042
 767  1196.284
 768  1261.887
 769  1147.049
 770  1172.32
 771  1251.316
 772  1382.942
 773  1313.576
 774  1157.981
 775  1242.268
 776  1314.744
 777  1375.804
 778  1422.567
 779  1315.879
 780  1214.714
 781  1196.66
 782  1162.29
 783  1180.288
 784  1098.442
 785  1042.069
 786  1129.051
 787  1184.512
 788  1234.737
 789  1252.966
 790  1340.4
 791  1326.763
 792  1286.984
 793  1233.426
 794  1260.941
 795  1381.359
 796  1304.547
 797  1279.677
 798  1183.388
 799  1172.369
 800  1106.407
 801  1082.919
 802  1128.225
 803  1238.134
 804  1222.199
 805  1191.669
 806  1371.593
 807  1315.647
 808  1305.959
 809  1152.185
 810  1094.081
 811  989.5601
 812  960.889
 813  982.2453
 814  930.3948
 815  857.7974
 816  967.9352
 817  1018.225
 818  1160.088
 819  1154.33
 820  1209.823
 821  1186.826
 822  1260.615
 823  1270.739
 824  1236.457
 825  1308.467
 826  1452.567
 827  1480.339
 828  1442.256
 829  1305.445
 830  1366.47
 831  1353.856
 832  1290.988
 833  1124.736
 834  1195.882
 835  1283.241
 836  1398.488
 837  1287.249
 838  1245.864
 839  1297.58
 840  1326.604
 841  1365.133
 842  1427.321
 843  1536.028
 844  1553.685
 845  1429.447
 846  1226.649
 847  1098.526
 848  1141.171
 849  1213.591
 850  1240.839
 851  1247.646
 852  1278.391
 853  1298.744
 854  1238.236
 855  1163.621
 856  1199.995
 857  1289.238
 858  1367.428
 859  1364.462
 860  1317.673
 861  1344.051
 862  1292.775
 863  1315.112
 864  1277.274
 865  1362.175
 866  1368.142
 867  1354.203
 868  1162.733
 869  1087.34
 870  1049.658
 871  1042.474
 872  1039.79
 873  1163.552
 874  1261.402
 875  1217.797
 876  1084.164
 877  1190.353
 878  1200.216
 879  1259.021
 880  1147.566
 881  1095.926
 882  1058.58
 883  1032.077
 884  1149.257
 885  1225.796
 886  1319.625
 887  1278.758
 888  1235.058
 889  1191.526
 890  1232.034
 891  1261.124
 892  1360.107
 893  1356.023
 894  1475.425
 895  1459.737
 896  1400.418
 897  1418.998
 898  1361.858
 899  1392.053
 900  1352.359
 901  1447.096
 902  1381.614
 903  1354.443
 904  1385.968
 905  1547.149
 906  1595.096
 907  1527.761
 908  1423.617
 909  1436.482
 910  1585.599
 911  1621.021
 912  1636.969
 913  1588.899
 914  1662.072
 915  1657.663
 916  1759.6
 917  1721.692
 918  1694.973
 919  1569.249
 920  1586.875
 921  1556.152
 922  1578.545
 923  1583.436
 924  1633.082
 925  1688.331
 926  1756.385
 927  1793.617
 928  1752.353
 929  1666.764
 930  1641.748
 931  1633.755
 932  1516.804
 933  1378.028
 934  1331.457
 935  1446.446
 936  1478.208
 937  1474.667
 938  1503.368
 939  1568.942
 940  1610.25
 941  1623.848
 942  1719.908
 943  1835.569
 944  1768.802
 945  1601.194
 946  1456.293
 947  1383.566
 948  1442.706
 949  1441.324
 950  1514.867
 951  1453.516
 952  1431.823
 953  1407.166
 954  1448.743
 955  1329.65
 956  1282.115
 957  1192.754
 958  1207.755
 959  1290.429
 960  1325.014
 961  1350.375
 962  1285.014
 963  1325.71
 964  1276.966
 965  1202.077
 966  1122.375
 967  1114.768
 968  1170.578
 969  1193.444
 970  1241.616
 971  1340.691
 972  1463.729
 973  1260.813
 974  1114.338
 975  1048.245
 976  1263.686
 977  1314.056
 978  1274.311
 979  1289.768
 980  1330.236
 981  1341.479
 982  1338.055
 983  1383.73
 984  1394.345
 985  1338.158
 986  1309.952
 987  1276.964
 988  1271.991
 989  1251.4
 990  1336.604
 991  1431.507
 992  1431
 993  1383.894
 994  1413.761
 995  1361.551
 996  1328.601
 997  1302.131
 998  1350.609
 999  1333.983
1000  1275.865
1001  1173.606
1002  1126.617
1003  1167.337
1004  1311.123
1005  1364.933
1006  1378.952
1007  1353.383
1008  1316.809
1009  1307.05
1010  1402.32
1011  1342.718
1012  1227.735
1013  1045.787
1014  1113.989
1015  1316.247
1016  1407.39
1017  1262.823
1018  1231.886
1019  1254.818
1020  1366.521
1021  1314.174
1022  1177.222
1023  1215.795
