# Input file       =  1211629359.111562_cleaned.dat
# Candidate        =  PSR_0332+5434
# Telescope        =  AR
# Epoch_topo       =  58267.488172587524
# Epoch_bary       =  N/A
# T_sample         =  0.002
# Data Folded      =  7340032
# Data Avg         =  0.0967818617303106
# Data StdDev      =  3.24630119381343 
# Profile Bins     =  512
# Profile Avg      =  1387.33843308994 
# Profile StdDev   =  388.689498928803 
# Reduced chi-sqr  =  1.293
# Prob(Noise)      <  8.03e-06   (~4.3 sigma)
# P_topo (ms)      =  714.519725554322  +/- 0.000215
# P'_topo (s/s)    =  -0                +/- 1.13e-10
# P''_topo (s/s^2) =  0                 +/- 5.01e-14
# P_bary (ms)      =  N/A
# P'_bary (s/s)    =  N/A
# P''_bary (s/s^2) =  N/A
# P_orb (s)        =  N/A
# asin(i)/c (s)    =  N/A
# eccentricity     =  N/A
# w (rad)          =  N/A
# T_peri           =  N/A
######################################################
   0  1643.644
   1  1314.1
   2  977.0424
   3  1235.569
   4  1464.046
   5  1584.732
   6  1274.966
   7  1652.097
   8  1565.064
   9  1498.611
  10  1411.135
  11  1712.001
  12  1465.338
  13  1139.485
  14  1075.92
  15  1417.936
  16  1430.301
  17  1407.808
  18  1578.878
  19  1671.366
  20  1656.337
  21  1476.085
  22  1518.333
  23  1398.606
  24  1201.882
  25  1803.006
  26  1808.332
  27  1722.248
  28  1647.055
  29  1768.816
  30  1654.647
  31  1443.992
  32  1616.382
  33  1368.357
  34  1401.748
  35  1473.649
  36  1577.141
  37  1387.013
  38  1403.266
  39  1818.546
  40  1377.131
  41  1501.304
  42  1433.676
  43  1097.109
  44  950.7404
  45  1460.886
  46  1732.768
  47  1383.753
  48  1283.83
  49  1253.384
  50  1177.795
  51  1232.73
  52  1159.386
  53  1248.05
  54  1221.607
  55  1165.728
  56  1626.887
  57  1710.303
  58  1511.427
  59  1450.417
  60  1255.086
  61  1528.301
  62  1538.327
  63  1448.768
  64  1179.932
  65  1302.442
  66  1270.552
  67  1304.605
  68  1145.233
  69  819.4395
  70  1165.69
  71  1231.322
  72  1213.842
  73  1112.49
  74  979.1414
  75  1299.963
  76  1461.12
  77  1583.293
  78  1277.062
  79  1278.926
  80  1296.832
  81  1566.797
  82  1248.334
  83  760.0168
  84  893.447
  85  1134.955
  86  1289.098
  87  1311.342
  88  1267.626
  89  1301.921
  90  1179.416
  91  1170.092
  92  1157.535
  93  1223.442
  94  1336.066
  95  1650.584
  96  1212.783
  97  858.325
  98  759.3546
  99  909.8965
 100  1120.446
 101  1319.029
 102  1404.947
 103  1348.689
 104  1369.474
 105  1234.216
 106  855.978
 107  910.3952
 108  1260.958
 109  997.1962
 110  1057.541
 111  1295.385
 112  1181.017
 113  1117.246
 114  953.7979
 115  1216.454
 116  1125.153
 117  1116.143
 118  988.1108
 119  1199.697
 120  900.4609
 121  851.1151
 122  943.152
 123  898.7426
 124  1084.181
 125  1139.996
 126  1337.4
 127  1462.735
 128  1474.232
 129  1217.356
 130  1235.586
 131  1194.313
 132  1340.136
 133  1240.319
 134  1216.32
 135  1440.426
 136  1630.758
 137  1519.282
 138  1540.889
 139  1472.589
 140  1172.722
 141  1337.311
 142  939.0335
 143  808.9249
 144  1060.758
 145  1286.907
 146  1224.116
 147  903.837
 148  519.1857
 149  963.3105
 150  1411.429
 151  1254.734
 152  1114.404
 153  1232.133
 154  1186.91
 155  788.0029
 156  709.3937
 157  1054.267
 158  1213.485
 159  1293.045
 160  1727.909
 161  1560.51
 162  1489.733
 163  1298.816
 164  1101.642
 165  1449.617
 166  1609.647
 167  1664.704
 168  1085.1
 169  1275.288
 170  1619.47
 171  940.1744
 172  906.8949
 173  1264.181
 174  881.3041
 175  819.6557
 176  837.4283
 177  1185.43
 178  1226.078
 179  1230.534
 180  1110.243
 181  1275.649
 182  1241.192
 183  1192.827
 184  1345.033
 185  1176.982
 186  1635.865
 187  1177.714
 188  1021.984
 189  1239.156
 190  1355.876
 191  1444.207
 192  1409.228
 193  1603.85
 194  1667.571
 195  1502.224
 196  1415.275
 197  1401.591
 198  1380.667
 199  1412.185
 200  1491.139
 201  1612.186
 202  1338.758
 203  1812.872
 204  1335.543
 205  1091.942
 206  955.0228
 207  1241.294
 208  1089.58
 209  1392.879
 210  1286.471
 211  1018.742
 212  1105.939
 213  1260.115
 214  1708.476
 215  1708.186
 216  1641.358
 217  1551.83
 218  1272.665
 219  1352.485
 220  1472.879
 221  1512.988
 222  1428.911
 223  1116.046
 224  1442.631
 225  1481.135
 226  1330.395
 227  1428.576
 228  1545.546
 229  1656.358
 230  1877.478
 231  1291.294
 232  1197.253
 233  1759.521
 234  1785.661
 235  1556.294
 236  1264.4
 237  1414.769
 238  1561.799
 239  1697.405
 240  1795.104
 241  1492.396
 242  1587.414
 243  1806.752
 244  1644.053
 245  1060.073
 246  1172.286
 247  1295.647
 248  1439.242
 249  1327.295
 250  1393.553
 251  1213.388
 252  1140.858
 253  1192.87
 254  1269.346
 255  1475.434
 256  1198.767
 257  1104.449
 258  1262.439
 259  1256.973
 260  1290.094
 261  1137.745
 262  1241.907
 263  1402.411
 264  1472.612
 265  1422.682
 266  1283.097
 267  1233.97
 268  1252.442
 269  1164.308
 270  1418.533
 271  1359.71
 272  1288.346
 273  1454.359
 274  1284.884
 275  1451.414
 276  1289.962
 277  1138.409
 278  1079.516
 279  1568.204
 280  1617.538
 281  1339.304
 282  1377.888
 283  1517.597
 284  1247.841
 285  1431.593
 286  1509.717
 287  1569.939
 288  1345.115
 289  1561.846
 290  1357.924
 291  1283.182
 292  1771.005
 293  1916.837
 294  1832.199
 295  2385.874
 296  2604.838
 297  3202.764
 298  3632.37
 299  3181.092
 300  2532.108
 301  2501.24
 302  2184.297
 303  1941.892
 304  2091.18
 305  1809.734
 306  1838.734
 307  1686.023
 308  1545.454
 309  1691.549
 310  1863.484
 311  2241.537
 312  2071.384
 313  2225.426
 314  2233.864
 315  1971.341
 316  2144.741
 317  1745.102
 318  1728.543
 319  1626.889
 320  1693.532
 321  1284.06
 322  1495.301
 323  1910.443
 324  1791.631
 325  1669.937
 326  1665.098
 327  1698.482
 328  1666.062
 329  1928.585
 330  1835.954
 331  1518.407
 332  1576.072
 333  1239.768
 334  1361.422
 335  1573.508
 336  1630.176
 337  1492.95
 338  1497.814
 339  1063.593
 340  1071.203
 341  1246.978
 342  989.6548
 343  967.1633
 344  1137.749
 345  1183.542
 346  1513.617
 347  1689.145
 348  1493.611
 349  1079.851
 350  943.3163
 351  1260.746
 352  1650.06
 353  1373.067
 354  1556.386
 355  1431.44
 356  1623.763
 357  1673.587
 358  1407.432
 359  1257.327
 360  1377.428
 361  1337.719
 362  1552.61
 363  1660.119
 364  1158.759
 365  1366.245
 366  1669.017
 367  1389.264
 368  1575.53
 369  1770.449
 370  1411.069
 371  1828.346
 372  1629.25
 373  1622.546
 374  1312.976
 375  1533.812
 376  1571.023
 377  1324.319
 378  1571.967
 379  1746.396
 380  1688.174
 381  1448.498
 382  1422.562
 383  1522.878
 384  1351.083
 385  1408.375
 386  1800.602
 387  1936.861
 388  1805.262
 389  1515.364
 390  1431.877
 391  1475.089
 392  1420.565
 393  1351.133
 394  1422.078
 395  1407.813
 396  1412.047
 397  1065.451
 398  1249.821
 399  1367.679
 400  1642.45
 401  1774.234
 402  1481.339
 403  1657.535
 404  1661.521
 405  1481.821
 406  1231.974
 407  1114.721
 408  1596.629
 409  1667.775
 410  1351.861
 411  1301.814
 412  1002.168
 413  1174.201
 414  987.4129
 415  911.4882
 416  1060.562
 417  916.272
 418  1373.76
 419  1343.693
 420  1206.281
 421  1084.515
 422  939.2052
 423  897.1476
 424  1105.495
 425  939.3431
 426  973.7855
 427  1134.573
 428  1166.464
 429  1058.886
 430  832.2399
 431  1118.464
 432  1150.893
 433  1352.149
 434  1210.7
 435  1286.157
 436  1338.442
 437  1313.173
 438  1399.98
 439  1392.601
 440  1519.568
 441  1683.282
 442  1426.932
 443  1420.189
 444  1482.283
 445  1504.3
 446  1400.739
 447  1509.524
 448  1600.408
 449  1459.379
 450  1422.557
 451  1552.257
 452  1268.428
 453  1421.268
 454  1444.245
 455  1142.502
 456  1281.608
 457  1420.944
 458  1696.318
 459  1728.135
 460  1526.236
 461  1329.645
 462  933.7397
 463  1274.936
 464  1120.613
 465  1512.266
 466  1744.748
 467  1403.509
 468  1090.194
 469  1286.868
 470  1349.78
 471  1092.266
 472  1179.803
 473  985.2782
 474  1108.005
 475  1550.309
 476  1579.047
 477  1267.287
 478  1352.058
 479  1304.169
 480  934.2296
 481  1138.303
 482  1326.785
 483  1334.253
 484  1372.237
 485  990.6692
 486  1187.509
 487  1260.637
 488  972.4802
 489  925.477
 490  1373.895
 491  1573.698
 492  1396.161
 493  1354.216
 494  1478.654
 495  1389.993
 496  1014.273
 497  1262.252
 498  1722.92
 499  1698.694
 500  1417.77
 501  1250.027
 502  998.0268
 503  810.0746
 504  1316.06
 505  1184.029
 506  1232.283
 507  1500.095
 508  1719.395
 509  1689.948
 510  1492.247
 511  1686.404
