# Input file       =  1211685997.11615_cleaned.dat
# Candidate        =  PSR_0332+5434
# Telescope        =  AR
# Epoch_topo       =  58268.143705048031
# Epoch_bary       =  N/A
# T_sample         =  0.002
# Data Folded      =  7143424
# Data Avg         =  0.423035568093086
# Data StdDev      =  5.63103108279654 
# Profile Bins     =  512
# Profile Avg      =  5902.15860307567 
# Profile StdDev   =  665.129420673323 
# Reduced chi-sqr  =  0.879
# Prob(Noise)      <  0.977   (~0.0 sigma)
# P_topo (ms)      =  714.518739014855  +/- 4.61e-05
# P'_topo (s/s)    =  -0                +/- 2.5e-11
# P''_topo (s/s^2) =  0                 +/- 1.13e-14
# P_bary (ms)      =  N/A
# P'_bary (s/s)    =  N/A
# P''_bary (s/s^2) =  N/A
# P_orb (s)        =  N/A
# asin(i)/c (s)    =  N/A
# eccentricity     =  N/A
# w (rad)          =  N/A
# T_peri           =  N/A
######################################################
   0  6032.522
   1  5930.814
   2  5684.939
   3  5572.664
   4  5886.635
   5  5644.812
   6  6056.249
   7  6401.601
   8  6459.526
   9  5944.796
  10  5989.517
  11  5812.71
  12  5099.956
  13  5442.075
  14  5889.491
  15  5874.695
  16  6196.732
  17  6378.378
  18  6848.957
  19  6356.413
  20  5886.813
  21  5488.788
  22  5510.156
  23  6016.416
  24  5914.683
  25  6787.472
  26  6787.504
  27  6443.802
  28  5636.889
  29  5750.765
  30  5914.321
  31  5854.503
  32  6293.62
  33  6322.86
  34  6903.921
  35  6585.349
  36  5996.552
  37  6089.075
  38  6195.988
  39  6203.252
  40  6124.73
  41  6349.217
  42  6508.663
  43  6527.772
  44  6176.681
  45  5806.999
  46  5804.067
  47  5994.19
  48  6026.104
  49  6135.718
  50  6824.359
  51  7135.821
  52  6752.215
  53  6462.147
  54  6198.293
  55  6156.696
  56  6159.608
  57  6573.496
  58  6682.959
  59  6609.162
  60  6684.872
  61  6414.819
  62  6196.692
  63  6347.91
  64  6236.715
  65  6229.718
  66  6574.939
  67  6768.08
  68  6471.522
  69  6402.973
  70  6281.514
  71  6351.808
  72  6419.113
  73  6520.925
  74  6305.9
  75  6556.404
  76  6427.05
  77  5935.637
  78  5689.673
  79  5514.289
  80  5575.96
  81  6042.931
  82  6413.751
  83  6668.113
  84  6285.426
  85  6225.125
  86  5610.135
  87  5289.566
  88  5640.403
  89  6233.956
  90  6280.718
  91  6581.625
  92  6409.135
  93  5854.262
  94  5709
  95  5766.136
  96  5728.252
  97  6169.584
  98  6174.361
  99  6231.989
 100  6454.562
 101  6455.682
 102  6278.409
 103  6455.708
 104  6098.37
 105  6209.716
 106  6362.461
 107  6755.787
 108  6535.72
 109  5985.061
 110  5959.169
 111  5416.981
 112  5511.554
 113  6133.938
 114  6089.305
 115  6325.235
 116  6797.031
 117  6749.807
 118  6264.127
 119  6145.695
 120  5988.334
 121  6156.638
 122  6289.278
 123  6448.03
 124  6591.38
 125  6458.748
 126  6282.048
 127  6096.432
 128  5888.354
 129  5486.404
 130  5536.05
 131  5950.089
 132  6586.007
 133  7020.638
 134  6623.885
 135  6291.151
 136  6276.209
 137  6220.416
 138  6482.695
 139  6356.239
 140  6369.009
 141  6578.511
 142  6933.542
 143  6460.675
 144  6145.202
 145  5892.851
 146  5832.883
 147  5936.646
 148  6433.905
 149  6827.193
 150  6420.594
 151  5853.927
 152  6017.809
 153  5999.979
 154  6040.193
 155  6112.626
 156  6296.392
 157  6561.754
 158  6452.177
 159  6293.515
 160  5767.216
 161  5714.933
 162  5458.873
 163  5758.24
 164  5739.204
 165  5860.316
 166  6038.542
 167  6342.898
 168  6497.36
 169  6050.629
 170  6158.691
 171  5995.648
 172  6050.902
 173  6066.899
 174  6190.856
 175  6142.65
 176  5742.603
 177  5599.559
 178  5775.008
 179  6145.348
 180  6296.823
 181  6353.714
 182  6430.188
 183  6508.448
 184  6170.106
 185  5904.724
 186  6038.418
 187  5940.837
 188  5913.661
 189  6522.377
 190  6638.773
 191  6485.052
 192  5817.941
 193  5351.834
 194  5316.564
 195  5446.061
 196  5721.661
 197  5796.194
 198  5955.649
 199  6555.41
 200  6510.561
 201  6302.899
 202  5632.867
 203  5480.744
 204  5731.8
 205  5779.527
 206  5940.762
 207  6447.497
 208  6178.136
 209  5674.153
 210  5606.602
 211  5486.664
 212  5685.523
 213  5918.112
 214  6058.772
 215  6309.636
 216  6332.188
 217  6197.102
 218  6074.655
 219  5773.281
 220  5642.292
 221  5840.668
 222  5720.657
 223  5809.373
 224  5572.416
 225  5632.827
 226  5714.079
 227  5367.503
 228  5645.594
 229  5695.499
 230  6020.125
 231  6155.272
 232  6174.271
 233  6091.16
 234  5789.703
 235  5682.882
 236  5519.235
 237  6337.246
 238  6039.693
 239  5874.224
 240  6060.84
 241  5987.557
 242  5540.435
 243  5374.918
 244  5133.363
 245  5167.288
 246  5708.854
 247  5598.027
 248  6124.09
 249  6287.653
 250  6212.678
 251  6016.333
 252  5907.002
 253  5976.768
 254  6064.041
 255  6363.202
 256  6175.128
 257  5460.356
 258  5677.655
 259  5361.146
 260  5216.301
 261  5048.449
 262  5290.305
 263  5992.478
 264  6116.752
 265  6257.508
 266  5907.497
 267  5732.739
 268  5592.123
 269  5796.363
 270  5719.475
 271  5655.535
 272  6107.643
 273  6230.766
 274  5784.504
 275  5019.868
 276  5170.523
 277  5433.888
 278  5771.277
 279  5691.817
 280  5405.652
 281  6134.656
 282  6625.857
 283  6067.33
 284  5759.578
 285  6043.348
 286  5625.871
 287  5644.779
 288  5987.528
 289  5998.201
 290  5925.171
 291  5488.455
 292  5209.883
 293  5396.827
 294  5547.24
 295  5724.681
 296  5723.215
 297  5867.34
 298  5838.678
 299  5721.849
 300  5399.896
 301  5276.965
 302  5968.512
 303  6019.013
 304  5771.286
 305  5773.744
 306  5768.46
 307  5424.083
 308  5430.09
 309  5347.746
 310  5033.268
 311  5158.084
 312  5637.727
 313  6177.27
 314  5765.631
 315  5932.381
 316  6213.911
 317  6154.3
 318  6123.005
 319  6143.992
 320  6758.518
 321  6726.113
 322  7014.26
 323  7049.306
 324  6704.893
 325  5952.388
 326  5312.289
 327  5008.812
 328  5164.021
 329  5176.218
 330  5530.583
 331  5740.02
 332  5603.265
 333  4893.108
 334  4863.422
 335  4696.505
 336  5288.857
 337  5644.792
 338  5824.496
 339  5506.314
 340  5376.776
 341  4922.679
 342  4592.336
 343  4644.089
 344  4517.392
 345  4834.357
 346  4821.238
 347  5682.631
 348  6146.313
 349  5543.933
 350  5436.343
 351  5203.064
 352  5437.719
 353  5287.385
 354  5188.246
 355  5395.594
 356  5631.438
 357  5534.17
 358  5193.118
 359  5082.627
 360  5057.481
 361  5187.469
 362  5284.454
 363  5216.068
 364  5478.853
 365  5575.668
 366  5748.939
 367  5363.401
 368  5627.773
 369  5379.114
 370  5376.78
 371  5318.042
 372  5860.547
 373  5862.967
 374  5959.31
 375  5388.671
 376  5307.038
 377  5425.276
 378  5613.59
 379  5916.261
 380  6289.932
 381  6418.308
 382  6384.951
 383  5998.452
 384  5790.31
 385  6037.074
 386  6191.619
 387  6112.122
 388  5653.492
 389  5825.886
 390  5861.226
 391  5382.166
 392  5633.555
 393  5331.985
 394  5665.148
 395  6038.688
 396  6410.712
 397  6304.646
 398  6171.645
 399  6016.329
 400  5654.797
 401  5981.939
 402  6114.854
 403  6152.326
 404  6099.151
 405  6302.75
 406  6079.001
 407  5766.286
 408  5674.165
 409  5108.516
 410  5594.845
 411  5782.606
 412  6412.097
 413  6541.458
 414  6540.037
 415  5777.615
 416  5253.535
 417  5674.528
 418  5728.145
 419  6146.132
 420  5994.673
 421  6223.722
 422  6053.207
 423  5826.611
 424  5520.475
 425  5244.344
 426  5343.533
 427  5757.082
 428  6047.97
 429  5827.83
 430  6349.287
 431  6599.402
 432  6297.391
 433  6081.425
 434  5504.56
 435  5699.677
 436  5753.578
 437  5785.708
 438  6094.574
 439  6216.438
 440  5929.783
 441  5456.474
 442  5537.519
 443  5631.071
 444  5567.427
 445  5919.387
 446  6538.864
 447  6596.634
 448  6219.885
 449  5682.062
 450  5497.417
 451  5556.881
 452  5587.948
 453  5627.134
 454  5744.149
 455  5707.613
 456  5610.237
 457  5349.097
 458  4915.59
 459  5419.645
 460  5405.63
 461  5303.728
 462  5246.798
 463  6152.947
 464  6134.512
 465  5722.634
 466  5772.259
 467  5356.802
 468  5800.432
 469  5967.218
 470  5439.36
 471  5647.066
 472  6104.955
 473  5688.838
 474  5316.396
 475  5427.799
 476  5389.306
 477  5534.375
 478  5719.94
 479  5990.141
 480  5961.195
 481  5664.299
 482  5711.816
 483  5797.521
 484  6133.477
 485  5962.525
 486  5951.006
 487  5776.172
 488  6011.773
 489  5919.457
 490  5256.387
 491  5189.64
 492  5013.555
 493  5299.688
 494  5420.343
 495  5898.113
 496  6494.716
 497  6138.957
 498  5578.991
 499  5434.302
 500  5455.745
 501  5636.475
 502  5840.506
 503  5624.657
 504  5704.101
 505  5833.389
 506  5614.265
 507  4932.983
 508  4888.441
 509  5413.744
 510  6235.627
 511  6409.073
