# Input file       =  1211370939.102914_cleaned.dat
# Candidate        =  PSR_0332+5434
# Telescope        =  AR
# Epoch_topo       =  58264.497200265207
# Epoch_bary       =  N/A
# T_sample         =  0.002
# Data Folded      =  7340032
# Data Avg         =  0.235315017786758
# Data StdDev      =  4.85503922455277 
# Profile Bins     =  1024
# Profile Avg      =  1686.77942297669 
# Profile StdDev   =  411.047244596176 
# Reduced chi-sqr  =  0.785
# Prob(Noise)      <  1   (~0.0 sigma)
# P_topo (ms)      =  714.522651796527  +/- 0.000278
# P'_topo (s/s)    =  -0                +/- 1.47e-10
# P''_topo (s/s^2) =  0                 +/- 6.48e-14
# P_bary (ms)      =  N/A
# P'_bary (s/s)    =  N/A
# P''_bary (s/s^2) =  N/A
# P_orb (s)        =  N/A
# asin(i)/c (s)    =  N/A
# eccentricity     =  N/A
# w (rad)          =  N/A
# T_peri           =  N/A
######################################################
   0  1889.78
   1  1765.276
   2  1652.234
   3  1607.599
   4  1644.075
   5  1636.107
   6  1646.553
   7  1684.286
   8  1644.079
   9  1732.167
  10  1844.489
  11  1808.552
  12  1682.465
  13  1533.265
  14  1559.966
  15  1668.307
  16  1732.047
  17  1708.061
  18  1593.223
  19  1577.044
  20  1650.07
  21  1599.378
  22  1546.975
  23  1549.798
  24  1763.97
  25  1739.065
  26  1657.582
  27  1473.489
  28  1520.038
  29  1645.118
  30  1784.853
  31  1937.194
  32  1961.881
  33  1895.06
  34  1806.085
  35  1714.63
  36  1732.423
  37  1780.83
  38  1877.649
  39  1788.833
  40  1689.014
  41  1693.367
  42  1658.278
  43  1635.318
  44  1577.809
  45  1691.152
  46  1814.817
  47  1865.358
  48  1863.8
  49  1864.13
  50  1775.285
  51  1769.933
  52  1686.736
  53  1690.49
  54  1595.329
  55  1637.013
  56  1621.675
  57  1664.194
  58  1712.738
  59  1860.305
  60  1890.252
  61  1724.281
  62  1646.546
  63  1635.195
  64  1720.903
  65  1746.703
  66  1798.05
  67  1883.055
  68  1928.837
  69  1848.29
  70  1772.791
  71  1747.974
  72  1896.832
  73  1974.844
  74  1966.666
  75  1723.695
  76  1662.818
  77  1744.951
  78  1988.91
  79  2152.733
  80  2174.898
  81  1950.154
  82  1786.417
  83  1727.1
  84  1800.924
  85  1796.425
  86  1877.633
  87  1927.563
  88  2058.744
  89  2056.292
  90  2142.693
  91  2012.595
  92  1976.164
  93  1824.801
  94  1844.008
  95  1765.246
  96  1752.941
  97  1749.293
  98  1723.709
  99  1709.349
 100  1670.072
 101  1726.871
 102  1636.974
 103  1706.068
 104  1752.999
 105  1775.339
 106  1712.847
 107  1616.578
 108  1659.123
 109  1675.208
 110  1775.732
 111  1638.501
 112  1587.662
 113  1530.99
 114  1513.227
 115  1491.908
 116  1438.482
 117  1602.896
 118  1710.709
 119  1848.714
 120  1733.948
 121  1784.775
 122  1787.173
 123  1778.13
 124  1683.288
 125  1728.791
 126  1814.378
 127  1898.134
 128  1873.693
 129  1777.179
 130  1715.028
 131  1728.694
 132  1690.266
 133  1818.676
 134  1854.654
 135  1958.256
 136  1875.555
 137  1830.274
 138  1667.038
 139  1634.755
 140  1783.268
 141  1963.399
 142  1961.299
 143  1852.957
 144  1880.002
 145  1852.467
 146  1791.304
 147  1799.346
 148  1830.182
 149  1873.406
 150  1865.673
 151  1968.811
 152  1961.337
 153  1796.981
 154  1743.911
 155  1724.98
 156  1716.431
 157  1652.545
 158  1753.442
 159  1913.522
 160  1876.308
 161  1903.506
 162  1894.229
 163  1973.512
 164  1894.368
 165  1905.392
 166  1882.175
 167  1858.501
 168  1800.357
 169  1842.52
 170  1899.003
 171  1881.667
 172  1974.652
 173  1914.279
 174  1972.159
 175  1995.337
 176  2107.617
 177  2149.944
 178  2091.994
 179  2041.925
 180  1912.875
 181  1811.376
 182  1845.97
 183  1860.1
 184  1813.914
 185  1721.353
 186  1817.933
 187  1958.924
 188  2029.067
 189  1969.561
 190  1952.308
 191  1908.976
 192  1913.952
 193  1807.526
 194  1742.189
 195  1643.037
 196  1654.413
 197  1678.68
 198  1647.474
 199  1590.38
 200  1581.31
 201  1549.66
 202  1577.102
 203  1533.744
 204  1637.473
 205  1520.403
 206  1511.087
 207  1585.92
 208  1667.262
 209  1651.548
 210  1518.642
 211  1565.13
 212  1703.77
 213  1825.968
 214  1850.732
 215  1890.402
 216  1928.805
 217  2073.484
 218  1906.285
 219  1646.06
 220  1456.565
 221  1524.777
 222  1551.385
 223  1682.324
 224  1845.715
 225  1924.964
 226  1923.173
 227  1832.806
 228  1730.615
 229  1705.016
 230  1648.843
 231  1716.493
 232  1694.557
 233  1653.524
 234  1643.096
 235  1623.893
 236  1634.587
 237  1730.865
 238  1815.609
 239  1811.243
 240  1786.628
 241  1827.991
 242  1875.831
 243  1914.975
 244  1966.521
 245  2031.269
 246  2000.101
 247  1801.944
 248  1722.069
 249  1827.534
 250  2034.446
 251  2098.491
 252  1922.014
 253  1774.272
 254  1705.207
 255  1824.403
 256  1933.846
 257  2061.912
 258  2235.546
 259  2212.725
 260  2089.51
 261  1827.566
 262  1707.374
 263  1741.05
 264  1785.341
 265  1878.443
 266  1788.136
 267  1773.691
 268  1756.77
 269  1775.91
 270  1742.875
 271  1706.988
 272  1654.829
 273  1604.012
 274  1685.978
 275  1818.197
 276  1816.386
 277  1771.703
 278  1750.346
 279  1789.642
 280  1819.318
 281  1738.01
 282  1831.159
 283  1822.386
 284  1781.728
 285  1800.97
 286  1730.307
 287  1722.025
 288  1597.104
 289  1718.853
 290  1868.177
 291  1943.851
 292  1894.962
 293  1876.695
 294  1972.894
 295  2064.652
 296  2024.814
 297  1881.81
 298  1686.372
 299  1708.195
 300  1775.853
 301  1748.279
 302  1626.961
 303  1711.338
 304  1820.366
 305  1899.528
 306  1919.043
 307  1921.731
 308  1752.177
 309  1704.351
 310  1920.951
 311  1903.31
 312  1805.993
 313  1787.61
 314  1982.935
 315  1966.204
 316  1868.69
 317  1664.59
 318  1601.865
 319  1682.397
 320  1936.088
 321  1969.15
 322  1822.727
 323  1719.12
 324  1803.426
 325  1781.286
 326  1583.994
 327  1596.675
 328  1687.151
 329  1676.187
 330  1725.466
 331  1801.929
 332  2038.932
 333  2035.105
 334  1969.969
 335  1829.491
 336  1686.782
 337  1642.568
 338  1717.791
 339  1758.439
 340  1849.909
 341  1822.411
 342  1914.219
 343  2077.604
 344  2121.308
 345  1979.327
 346  1871.95
 347  1784.788
 348  1815.769
 349  1809.819
 350  1682.474
 351  1679.812
 352  1624.121
 353  1683.663
 354  1637.661
 355  1680.071
 356  1701.562
 357  1669.31
 358  1700.592
 359  1664.909
 360  1497.931
 361  1305.579
 362  1402.282
 363  1543.961
 364  1644.476
 365  1652.737
 366  1608.618
 367  1611.307
 368  1503.272
 369  1467.489
 370  1499.802
 371  1570.749
 372  1590.117
 373  1627.909
 374  1619.939
 375  1555.394
 376  1388.81
 377  1395.506
 378  1393.792
 379  1470.166
 380  1545.941
 381  1537.193
 382  1517.193
 383  1648.987
 384  1616.241
 385  1552.844
 386  1488.52
 387  1552.817
 388  1670.614
 389  1698.31
 390  1843.717
 391  1688.348
 392  1684.32
 393  1709.318
 394  1641.416
 395  1595.312
 396  1554.214
 397  1515.266
 398  1538.594
 399  1547.567
 400  1588.2
 401  1564.935
 402  1571.038
 403  1599.228
 404  1725.513
 405  1854.703
 406  1875.475
 407  1774.578
 408  1672.964
 409  1527.045
 410  1490.444
 411  1475.172
 412  1564.789
 413  1617.176
 414  1718.331
 415  1822.25
 416  1775.018
 417  1899.462
 418  1944.518
 419  1917.943
 420  1701.835
 421  1626.172
 422  1684.072
 423  1818.032
 424  1824.56
 425  1737.951
 426  1567.817
 427  1496.842
 428  1461.333
 429  1625.369
 430  1658.104
 431  1753.687
 432  1608.558
 433  1693.246
 434  1679.294
 435  1627.709
 436  1540.073
 437  1585.163
 438  1694.786
 439  1708.366
 440  1738.702
 441  1591.178
 442  1548.816
 443  1590.229
 444  1694.139
 445  1741.555
 446  1637.914
 447  1597.665
 448  1585.441
 449  1552.567
 450  1511.995
 451  1404.487
 452  1215.239
 453  1289.098
 454  1492.738
 455  1658.231
 456  1618.973
 457  1587.74
 458  1610.798
 459  1638.543
 460  1521.888
 461  1416.966
 462  1417.453
 463  1457.78
 464  1490.134
 465  1507.641
 466  1608.824
 467  1748.245
 468  1796.34
 469  1740.239
 470  1724.026
 471  1729.942
 472  1745.988
 473  1803.095
 474  1866.728
 475  1947.139
 476  1865.815
 477  1837.364
 478  1784.18
 479  1919.609
 480  1867.144
 481  1858.907
 482  1739.538
 483  1878.956
 484  1876.056
 485  1975.311
 486  2148.352
 487  2090.844
 488  1954.826
 489  1853.469
 490  1894.067
 491  2008.681
 492  2034.675
 493  2099.288
 494  1954.039
 495  2029.037
 496  1958.765
 497  1937.843
 498  1858.392
 499  1838.261
 500  1881.256
 501  1920.215
 502  2031.492
 503  2043.493
 504  2079.373
 505  1979.054
 506  1863.625
 507  1885.958
 508  1935.865
 509  1905.951
 510  1780.476
 511  1766.217
 512  1820.307
 513  1886.145
 514  1887.859
 515  1786.65
 516  1743.436
 517  1703.393
 518  1662.099
 519  1646.886
 520  1477.396
 521  1553.018
 522  1546.297
 523  1858.444
 524  1906.629
 525  1852.921
 526  1771.887
 527  1648.447
 528  1591.534
 529  1421.542
 530  1479.641
 531  1580.309
 532  1617.758
 533  1672.378
 534  1766.557
 535  1788.77
 536  1710.125
 537  1655.601
 538  1603.598
 539  1684.826
 540  1633.482
 541  1586.571
 542  1422.814
 543  1470.946
 544  1544.305
 545  1651.693
 546  1554.289
 547  1549.818
 548  1459.168
 549  1371.211
 550  1451.982
 551  1562.024
 552  1551.905
 553  1484.24
 554  1533.139
 555  1617.401
 556  1745.4
 557  1885.03
 558  1907.52
 559  1754.182
 560  1547.484
 561  1646.872
 562  1567.165
 563  1637.241
 564  1610.428
 565  1716.387
 566  1673.987
 567  1600.11
 568  1539.642
 569  1557.166
 570  1692.296
 571  1703.321
 572  1737.002
 573  1619.338
 574  1629.032
 575  1654.071
 576  1724.308
 577  1809.561
 578  1726.484
 579  1613.879
 580  1574.993
 581  1716.286
 582  1732.606
 583  1850.29
 584  1938.118
 585  2058.185
 586  2068.628
 587  2012.191
 588  1969.021
 589  1813.854
 590  1781.602
 591  1925.048
 592  2105.76
 593  2137.336
 594  2192.328
 595  2254.482
 596  2363.768
 597  2487.831
 598  2599.63
 599  2698.739
 600  2583.36
 601  2622.883
 602  2548.521
 603  2332.573
 604  2149.186
 605  2049.106
 606  1984.392
 607  1775.32
 608  1611.836
 609  1640.556
 610  1697.869
 611  1580.585
 612  1541.734
 613  1518.13
 614  1595.515
 615  1594.141
 616  1507.713
 617  1382.943
 618  1342.49
 619  1421.905
 620  1503.637
 621  1519.555
 622  1500.632
 623  1518.943
 624  1564.786
 625  1530.112
 626  1565.476
 627  1567.922
 628  1663.37
 629  1555.605
 630  1528.857
 631  1320.868
 632  1286.731
 633  1182.425
 634  1225.896
 635  1317.19
 636  1363.078
 637  1456.827
 638  1416.688
 639  1504.732
 640  1558.751
 641  1639.177
 642  1581.089
 643  1483.893
 644  1430.17
 645  1446.368
 646  1422.133
 647  1488.306
 648  1529.751
 649  1611.901
 650  1501.071
 651  1477.97
 652  1421.97
 653  1453.997
 654  1448.863
 655  1554.152
 656  1654.233
 657  1630.169
 658  1609.705
 659  1539.331
 660  1490.971
 661  1427.467
 662  1464.691
 663  1466.904
 664  1598.688
 665  1698.798
 666  1746.315
 667  1692.141
 668  1615.902
 669  1467.88
 670  1440.944
 671  1513.623
 672  1697.988
 673  1644.117
 674  1618.011
 675  1526.93
 676  1535.591
 677  1551.998
 678  1598.748
 679  1620.697
 680  1702.516
 681  1822.068
 682  1904.227
 683  1818.948
 684  1726.962
 685  1584.502
 686  1534.854
 687  1473.398
 688  1415.047
 689  1490.415
 690  1509.009
 691  1583.728
 692  1542.635
 693  1585.9
 694  1607.213
 695  1658.288
 696  1659.149
 697  1550.129
 698  1254.746
 699  1195.224
 700  1398.72
 701  1558.887
 702  1477.375
 703  1479.532
 704  1552.618
 705  1525.072
 706  1345.716
 707  1363.159
 708  1442.49
 709  1417.376
 710  1389.88
 711  1375.676
 712  1370.435
 713  1361.658
 714  1391.078
 715  1373.87
 716  1361.518
 717  1302.113
 718  1210.47
 719  1209.719
 720  1282.632
 721  1362.792
 722  1316.546
 723  1380.544
 724  1434.136
 725  1579.425
 726  1678.847
 727  1697.137
 728  1765.435
 729  1835.421
 730  1832.646
 731  1767.68
 732  1775.355
 733  1707.757
 734  1690.901
 735  1581.479
 736  1520.708
 737  1459.287
 738  1474.272
 739  1519.185
 740  1467.37
 741  1479.989
 742  1501.021
 743  1663.383
 744  1663.208
 745  1660.502
 746  1608.87
 747  1680.262
 748  1607.356
 749  1559.366
 750  1501.302
 751  1668.519
 752  1722.158
 753  1607.947
 754  1591.057
 755  1540.338
 756  1573.497
 757  1528.496
 758  1521.145
 759  1658.85
 760  1765.346
 761  1866.565
 762  1914.02
 763  1997.183
 764  1985.592
 765  1735.572
 766  1594.295
 767  1526.242
 768  1599.464
 769  1587.34
 770  1667.257
 771  1753.556
 772  1684.038
 773  1552.968
 774  1566.205
 775  1641.457
 776  1680.881
 777  1616.605
 778  1685.193
 779  1523.188
 780  1340.847
 781  1380.655
 782  1545.532
 783  1589.437
 784  1614.343
 785  1544.793
 786  1534.193
 787  1428.112
 788  1385.608
 789  1460.657
 790  1463.433
 791  1451.698
 792  1402.139
 793  1538.189
 794  1635.447
 795  1609.308
 796  1535.302
 797  1505.045
 798  1520.991
 799  1609.549
 800  1526.162
 801  1501.204
 802  1587.491
 803  1540.182
 804  1608.32
 805  1472.499
 806  1477.904
 807  1406.363
 808  1554.752
 809  1648.615
 810  1710.395
 811  1678.42
 812  1629.591
 813  1618.264
 814  1863.495
 815  1975.508
 816  1876.304
 817  1812.289
 818  1803.976
 819  1885.236
 820  1797.454
 821  1789.367
 822  1712.924
 823  1687.17
 824  1726.574
 825  1718.588
 826  1810.266
 827  1924.05
 828  2010.204
 829  1958.152
 830  1897.137
 831  1917.885
 832  1965.797
 833  1973.158
 834  2093.317
 835  2040.45
 836  1928.868
 837  1776.447
 838  1737.655
 839  1757.425
 840  1712.555
 841  1776.912
 842  1902.281
 843  1937.959
 844  1927.751
 845  1864.972
 846  1872.857
 847  1770.292
 848  1761.78
 849  1768.011
 850  1701.332
 851  1757.084
 852  1922.007
 853  2003.015
 854  1954.751
 855  1918.94
 856  1868.26
 857  1945.535
 858  1866.449
 859  1918.027
 860  1680.732
 861  1682.879
 862  1637.185
 863  1640.161
 864  1558.987
 865  1554.539
 866  1634.206
 867  1673.586
 868  1693.961
 869  1573.001
 870  1411.646
 871  1416.009
 872  1460.04
 873  1537.542
 874  1487.583
 875  1533.926
 876  1753.409
 877  1763.799
 878  1697.827
 879  1565.475
 880  1515.848
 881  1471.393
 882  1419.915
 883  1473.963
 884  1459.485
 885  1575.53
 886  1524.125
 887  1505.288
 888  1480.31
 889  1497.872
 890  1453.386
 891  1320.787
 892  1393.53
 893  1456.351
 894  1433.755
 895  1323.716
 896  1325.601
 897  1424.786
 898  1441.121
 899  1521.839
 900  1496.655
 901  1580.265
 902  1587.432
 903  1476.004
 904  1385.261
 905  1314.8
 906  1373.77
 907  1435.771
 908  1594.828
 909  1619.089
 910  1584.903
 911  1567.227
 912  1640.323
 913  1626.869
 914  1660.185
 915  1797.54
 916  1728.46
 917  1687.551
 918  1542.02
 919  1662.326
 920  1734.596
 921  1741.289
 922  1624.654
 923  1575.093
 924  1647.109
 925  1650.246
 926  1602.939
 927  1628.809
 928  1649.353
 929  1535.864
 930  1432.009
 931  1484.938
 932  1625.68
 933  1781.451
 934  1772.998
 935  1738.572
 936  1707.32
 937  1713.123
 938  1663.045
 939  1740.046
 940  1707.621
 941  1800.571
 942  1743.834
 943  1669.524
 944  1501.627
 945  1560.228
 946  1563.954
 947  1514.404
 948  1474.132
 949  1570.765
 950  1606.529
 951  1677.209
 952  1529.878
 953  1506.231
 954  1546.385
 955  1467.538
 956  1429.105
 957  1414.963
 958  1587.46
 959  1594.19
 960  1574.93
 961  1491.814
 962  1386.45
 963  1368.142
 964  1403.898
 965  1332.907
 966  1243.743
 967  1304.296
 968  1311.669
 969  1354.151
 970  1425.967
 971  1468.036
 972  1408.787
 973  1250.564
 974  1288.326
 975  1369.858
 976  1358.655
 977  1359.314
 978  1260.699
 979  1342.832
 980  1380.294
 981  1484.936
 982  1442.615
 983  1453.752
 984  1494.78
 985  1507.974
 986  1561.152
 987  1498.373
 988  1418.293
 989  1332.227
 990  1454.088
 991  1626.008
 992  1782.884
 993  1594.106
 994  1428.396
 995  1324.934
 996  1361.661
 997  1293.107
 998  1268.603
 999  1347.127
1000  1540.988
1001  1562.602
1002  1550.46
1003  1569.075
1004  1541.577
1005  1526.273
1006  1560.382
1007  1645.373
1008  1671.336
1009  1751.227
1010  1844.404
1011  1823.338
1012  1584.649
1013  1570.591
1014  1490.561
1015  1416.531
1016  1347.337
1017  1528.772
1018  1653.555
1019  1838.141
1020  1756.377
1021  1692.337
1022  1669.132
1023  1736.254
