# Input file       =  1211284752.109416_cleaned.dat
# Candidate        =  PSR_0332+5434
# Telescope        =  AR
# Epoch_topo       =  58263.499665618241
# Epoch_bary       =  N/A
# T_sample         =  0.002
# Data Folded      =  7340032
# Data Avg         =  0.245461514401541
# Data StdDev      =  4.85397376242246 
# Profile Bins     =  1024
# Profile Avg      =  1759.45525438832 
# Profile StdDev   =  410.957038265675 
# Reduced chi-sqr  =  0.741
# Prob(Noise)      <  1   (~0.0 sigma)
# P_topo (ms)      =  714.523628414914  +/- 0.000805
# P'_topo (s/s)    =  -0                +/- 4.25e-10
# P''_topo (s/s^2) =  0                 +/- 1.87e-13
# P_bary (ms)      =  N/A
# P'_bary (s/s)    =  N/A
# P''_bary (s/s^2) =  N/A
# P_orb (s)        =  N/A
# asin(i)/c (s)    =  N/A
# eccentricity     =  N/A
# w (rad)          =  N/A
# T_peri           =  N/A
######################################################
   0  1742.564
   1  1892.42
   2  1720.653
   3  1648.513
   4  1526.362
   5  1591.086
   6  1725.85
   7  1733.401
   8  1617.198
   9  1457.69
  10  1581.18
  11  1684.525
  12  1642.635
  13  1627.643
  14  1644.432
  15  1783.61
  16  1719.895
  17  1711.287
  18  1742.626
  19  1622.201
  20  1665.929
  21  1508.654
  22  1591.273
  23  1546.799
  24  1656.74
  25  1676.47
  26  1750.303
  27  1911.67
  28  1854.126
  29  1862.983
  30  1863.242
  31  1938.506
  32  2023.094
  33  1938.84
  34  1916.9
  35  1665.705
  36  1641.578
  37  1468.617
  38  1480.633
  39  1418.061
  40  1557.075
  41  1603.054
  42  1588.287
  43  1612.446
  44  1591.065
  45  1678.352
  46  1610.281
  47  1535.752
  48  1479.062
  49  1459.728
  50  1688.219
  51  1739.467
  52  1827.573
  53  1668.47
  54  1675.381
  55  1700.266
  56  1801.554
  57  1772.842
  58  1689.385
  59  1746.245
  60  1574.661
  61  1665.714
  62  1454.391
  63  1467.375
  64  1397.186
  65  1480.759
  66  1616.255
  67  1699.025
  68  1796.958
  69  1694.529
  70  1704.967
  71  1727.281
  72  1545.457
  73  1518.752
  74  1424.262
  75  1503.158
  76  1317.799
  77  1275.405
  78  1344.322
  79  1399.753
  80  1627.531
  81  1665.352
  82  1903.352
  83  1911.391
  84  1786.614
  85  1577.684
  86  1353.688
  87  1382.603
  88  1279.057
  89  1628.118
  90  1702.177
  91  1742.457
  92  1680.912
  93  1618.057
  94  1807.833
  95  1596.478
  96  1544.011
  97  1509.595
  98  1651.006
  99  1540.89
 100  1389.559
 101  1523.444
 102  1661.729
 103  1879.319
 104  1818.101
 105  1805.367
 106  1649.188
 107  1654.091
 108  1792.914
 109  1938.037
 110  1990.555
 111  1933.515
 112  2057.087
 113  2085.066
 114  2028.233
 115  1789.583
 116  1787.136
 117  1789.877
 118  1840.677
 119  1890.154
 120  1932.479
 121  2049.069
 122  1920.043
 123  1807.835
 124  1740.554
 125  1654.06
 126  1753.045
 127  1627.035
 128  1801.059
 129  1694.215
 130  1534.713
 131  1416.017
 132  1462.736
 133  1805.383
 134  1879.713
 135  1959.991
 136  1992.866
 137  1942.745
 138  1777.545
 139  1612.332
 140  1672.622
 141  1660.062
 142  1802.923
 143  1770.189
 144  1740.249
 145  1507.721
 146  1471.155
 147  1688.261
 148  1751.463
 149  1948.313
 150  1857.141
 151  1885.5
 152  1936.407
 153  1959.521
 154  2037.508
 155  1977.752
 156  2013.16
 157  1783.141
 158  1782.672
 159  1673.877
 160  1639.509
 161  1639.19
 162  1596.598
 163  1797.777
 164  1826.726
 165  2113.016
 166  2141.158
 167  2134.595
 168  2116.959
 169  1919.408
 170  1907.763
 171  1776.311
 172  1881.583
 173  1738.703
 174  1718.169
 175  1653.267
 176  1691.959
 177  1734.247
 178  1733.876
 179  1738.158
 180  1688.131
 181  1657.6
 182  1551.085
 183  1438.875
 184  1449.054
 185  1569.353
 186  1636.411
 187  1716.381
 188  1716.317
 189  1748.298
 190  1732.818
 191  1761.434
 192  1739.425
 193  1824.892
 194  1975.314
 195  2115.71
 196  1957.891
 197  1711.653
 198  1566.362
 199  1547.928
 200  1660.275
 201  1507.538
 202  1455.973
 203  1325.617
 204  1494.114
 205  1594.619
 206  1688.548
 207  1818.203
 208  1837.736
 209  2060.446
 210  2033.615
 211  1987.933
 212  1910.786
 213  1795.307
 214  1738.726
 215  1644.459
 216  1765.691
 217  1747.021
 218  1687.156
 219  1784.079
 220  1902.218
 221  2081.474
 222  1917.941
 223  2007.456
 224  1976.46
 225  2072.83
 226  1920.994
 227  1795.193
 228  1780.992
 229  1657.512
 230  1690.371
 231  1748.126
 232  1955.134
 233  2006.208
 234  1931.269
 235  1872.191
 236  1811.671
 237  1771.027
 238  1711.015
 239  1836.39
 240  1836.891
 241  1868.708
 242  1854.06
 243  1824.89
 244  1818.211
 245  1933.156
 246  2046.002
 247  2029.198
 248  2105.99
 249  2171.194
 250  2064.507
 251  1866.854
 252  1753.378
 253  1899.828
 254  1853.612
 255  1801.081
 256  1722.082
 257  1697.545
 258  1740.888
 259  1825.776
 260  1980.905
 261  2099.942
 262  1906.81
 263  1978.403
 264  1877.069
 265  1857.211
 266  1715.548
 267  1770
 268  1792.629
 269  1845.027
 270  1927.324
 271  1847.784
 272  1890.659
 273  1837.914
 274  1894.399
 275  1963.292
 276  1984.394
 277  1965.158
 278  1787.106
 279  1754.879
 280  1685.417
 281  1671.033
 282  1532.361
 283  1644.09
 284  1768.835
 285  1647.052
 286  1491.971
 287  1521.053
 288  1825.788
 289  1814.403
 290  1871.526
 291  1857.862
 292  1870.632
 293  1807.284
 294  1796.42
 295  1807.63
 296  1656.4
 297  1718.696
 298  1838.82
 299  2077.433
 300  2000.093
 301  1798.605
 302  1904.204
 303  1879.49
 304  1882.916
 305  1640.279
 306  1767.671
 307  1867.883
 308  1998.507
 309  2098.508
 310  2032.431
 311  1927.188
 312  1887.046
 313  1947.858
 314  1851.768
 315  1754.208
 316  1752.652
 317  1744.493
 318  1791.755
 319  1571.592
 320  1568.572
 321  1574.77
 322  1695.93
 323  1868.669
 324  1885.902
 325  2047.584
 326  2023.796
 327  1937.576
 328  1720.78
 329  1766.525
 330  1775.687
 331  1782.935
 332  1695.214
 333  1732.627
 334  1943.261
 335  1947.506
 336  1991.003
 337  1890.94
 338  1833.667
 339  1862.015
 340  1876.056
 341  1793.825
 342  1586.491
 343  1559.304
 344  1644.41
 345  1577.673
 346  1595.907
 347  1667.027
 348  1843.563
 349  1801.472
 350  1913.75
 351  1874.668
 352  1928.82
 353  1865.867
 354  1801.538
 355  1785.917
 356  1682.422
 357  1764.434
 358  1695.526
 359  1760.052
 360  1745.224
 361  1809.325
 362  1751.603
 363  1581.827
 364  1599.278
 365  1587.016
 366  1712.628
 367  1744.52
 368  1905.851
 369  1790.64
 370  1694.164
 371  1671.838
 372  1750.703
 373  1696.53
 374  1635.629
 375  1538.895
 376  1621.698
 377  1543.7
 378  1561.222
 379  1566.535
 380  1722.967
 381  1860.323
 382  1833.401
 383  1756.782
 384  1658.296
 385  1676.732
 386  1826.172
 387  1909.27
 388  1781.485
 389  1538.068
 390  1481.429
 391  1645.652
 392  1811.065
 393  1896.69
 394  1942.681
 395  1879.326
 396  1894.505
 397  1828.135
 398  1782.548
 399  1839.342
 400  1901.296
 401  2015.316
 402  2026.101
 403  2001.733
 404  1967.226
 405  1910.32
 406  2090.825
 407  2022.589
 408  2011.755
 409  1893.641
 410  2002.387
 411  1947.008
 412  1837.993
 413  1676.259
 414  1495.819
 415  1462.087
 416  1482.677
 417  1626.057
 418  1703.146
 419  1751.323
 420  1860.981
 421  1871.228
 422  1971.148
 423  1944.317
 424  2136.129
 425  2251.147
 426  2164.793
 427  2017.814
 428  1981.461
 429  2152.73
 430  2016.688
 431  1999.996
 432  1887.358
 433  1838.314
 434  1769.971
 435  1815.125
 436  1858.45
 437  1764.949
 438  1819.758
 439  1687.996
 440  1804.863
 441  1755.802
 442  1847.799
 443  1872.346
 444  1867.296
 445  1978.595
 446  1790.008
 447  1704.966
 448  1496.814
 449  1526.415
 450  1511.242
 451  1429.706
 452  1607.922
 453  1556.49
 454  1574.084
 455  1507.569
 456  1579.739
 457  1791.901
 458  1651.099
 459  1762.004
 460  1642.062
 461  1911.918
 462  1741.662
 463  1648.501
 464  1519.249
 465  1460.292
 466  1546.444
 467  1627.739
 468  1636.826
 469  1561.215
 470  1621.68
 471  1740.155
 472  1725.253
 473  1676.683
 474  1594.912
 475  1525.962
 476  1431.499
 477  1354.751
 478  1354.897
 479  1377.937
 480  1385.146
 481  1429.378
 482  1588.803
 483  1591.68
 484  1553.925
 485  1549.387
 486  1541.344
 487  1356.335
 488  1328.441
 489  1496.564
 490  1326.859
 491  1231.222
 492  1201.406
 493  1378.541
 494  1394.592
 495  1327.29
 496  1381.548
 497  1254.033
 498  1354.182
 499  1404.905
 500  1575.212
 501  1501.274
 502  1493.838
 503  1578.102
 504  1531.66
 505  1514.431
 506  1379.903
 507  1394.902
 508  1360.716
 509  1480.701
 510  1678.073
 511  1707.275
 512  1741.159
 513  1758.281
 514  1716.551
 515  1766.667
 516  1815.711
 517  1921.024
 518  1754.596
 519  1721.859
 520  1698.013
 521  1769.605
 522  1830.591
 523  1788.979
 524  1887.473
 525  1756.057
 526  1862.735
 527  1630.629
 528  1412.812
 529  1251.06
 530  1368.954
 531  1597.169
 532  1591.693
 533  1579.508
 534  1626.487
 535  1679.224
 536  1727.253
 537  1755.434
 538  1698.093
 539  1568.508
 540  1447.088
 541  1465.5
 542  1610.77
 543  1611.883
 544  1729.925
 545  1702.193
 546  1607.297
 547  1515.094
 548  1737.82
 549  2101.239
 550  2038.58
 551  2015.856
 552  1842.659
 553  1838.228
 554  1544.105
 555  1470.063
 556  1581.621
 557  1597.883
 558  1711.93
 559  1586.148
 560  1642.37
 561  1627.596
 562  1562.348
 563  1691.457
 564  1753.7
 565  1771.478
 566  1590.906
 567  1492.029
 568  1547.687
 569  1576.836
 570  1774.368
 571  1825.943
 572  2042.761
 573  1995.313
 574  2166.356
 575  1999.142
 576  2036.288
 577  1962.914
 578  1772.895
 579  1828.765
 580  1884.124
 581  2086.756
 582  1822.139
 583  1663.598
 584  1664.423
 585  1645.751
 586  1682.479
 587  1580.701
 588  1654.679
 589  1597.358
 590  1760.496
 591  1938.674
 592  2028.529
 593  2241.381
 594  2363.533
 595  2724.95
 596  2735.502
 597  2667.65
 598  2753.771
 599  2730.414
 600  2628.744
 601  2295.759
 602  2245.213
 603  2307.725
 604  2336.03
 605  2187.213
 606  2026.864
 607  2047.349
 608  1982.686
 609  2007.192
 610  1897.813
 611  1867.93
 612  1847.836
 613  1840.841
 614  1875.025
 615  1808.166
 616  1918.763
 617  1892.603
 618  1911.428
 619  1889.327
 620  1880.779
 621  1842.003
 622  1718.969
 623  1770.957
 624  1821.561
 625  1883.219
 626  1970.005
 627  2049.269
 628  2226.529
 629  2031.378
 630  1970.796
 631  1776.262
 632  1847.736
 633  1778.063
 634  1810.03
 635  1600.592
 636  1526.97
 637  1552.467
 638  1646.621
 639  1809.446
 640  1708.331
 641  1774.683
 642  1710.971
 643  1623.929
 644  1544.265
 645  1629.548
 646  1812.451
 647  1734.067
 648  1639.538
 649  1630.555
 650  1594.534
 651  1649.202
 652  1596.224
 653  1711.884
 654  1704.856
 655  1704.672
 656  1675.041
 657  1613.866
 658  1632.745
 659  1529.268
 660  1583.401
 661  1507.164
 662  1539.261
 663  1551.952
 664  1724.422
 665  1817.328
 666  1689.434
 667  1859.287
 668  1781.085
 669  1906.492
 670  1656.861
 671  1702.88
 672  1771.069
 673  1754.674
 674  1749.273
 675  1476.484
 676  1561.466
 677  1588.54
 678  1753.649
 679  1736.933
 680  1764.033
 681  1927.825
 682  1914.129
 683  1883.51
 684  1696.898
 685  1698.876
 686  1712.544
 687  1696.703
 688  1858.886
 689  1766.569
 690  1771.634
 691  1598.491
 692  1597.52
 693  1644.055
 694  1745.976
 695  1967.931
 696  1934.728
 697  1917.639
 698  1702.358
 699  1576.766
 700  1485.504
 701  1591.968
 702  1721.765
 703  1741.186
 704  1875.984
 705  1882.136
 706  2004.929
 707  1821.513
 708  1815.291
 709  1796.444
 710  1756.312
 711  1790.99
 712  1739.148
 713  1860.122
 714  1827.451
 715  1948.01
 716  1880.937
 717  1711.281
 718  1638.804
 719  1719.248
 720  2048.269
 721  2088.608
 722  2040.713
 723  1884.586
 724  1820.618
 725  1964.638
 726  1857.074
 727  1772.854
 728  1634.551
 729  1782.916
 730  1787.936
 731  1685.867
 732  1701.262
 733  1675.057
 734  1851.01
 735  1846.451
 736  2002.266
 737  1971.872
 738  1954.866
 739  1925.616
 740  1929.799
 741  1964.942
 742  1761.543
 743  1713.7
 744  1675.002
 745  1751.844
 746  1580.777
 747  1469.989
 748  1520.908
 749  1550.764
 750  1636.169
 751  1595.598
 752  1686.591
 753  1736.204
 754  1752.948
 755  1825.786
 756  1605.386
 757  1674.308
 758  1582.258
 759  1654.926
 760  1505.83
 761  1465.999
 762  1528.989
 763  1551.541
 764  1648.055
 765  1742.639
 766  1889.455
 767  1932.436
 768  1839.154
 769  1768.54
 770  1785.035
 771  1851.446
 772  1848.31
 773  1743.513
 774  1531.354
 775  1401.528
 776  1552.25
 777  1681.323
 778  1688.159
 779  1577.893
 780  1665.664
 781  1642.35
 782  1639.999
 783  1665.041
 784  1608.244
 785  1756.084
 786  1724.153
 787  1743.703
 788  1625.027
 789  1584.479
 790  1461.006
 791  1384.374
 792  1495.471
 793  1501.255
 794  1448.19
 795  1328.401
 796  1480.651
 797  1591.961
 798  1556.88
 799  1609.36
 800  1614.124
 801  1666.637
 802  1550.938
 803  1635.18
 804  1613.883
 805  1743.133
 806  1745.433
 807  1736.963
 808  1635.459
 809  1531.048
 810  1665.406
 811  1608.451
 812  1602.764
 813  1541.429
 814  1530.633
 815  1644.379
 816  1657.633
 817  1749.758
 818  1626.247
 819  1513.666
 820  1352.792
 821  1408.281
 822  1550.661
 823  1703.984
 824  1789.438
 825  1708.948
 826  1752.896
 827  1857.332
 828  1887.798
 829  1939.832
 830  1762.304
 831  1770.371
 832  1756.623
 833  1762.689
 834  1805.531
 835  1927.328
 836  2081.272
 837  1936.977
 838  1833.661
 839  1707.81
 840  1803.167
 841  1987.365
 842  2212.671
 843  2170.019
 844  1968.463
 845  1861.69
 846  1863.658
 847  2074.095
 848  2172.607
 849  2120.332
 850  1935.311
 851  1898.697
 852  2051.384
 853  1995.224
 854  2049.995
 855  1889.715
 856  2017.356
 857  1970.416
 858  1963.649
 859  1976.176
 860  1946.617
 861  2117.306
 862  1931.257
 863  2062.975
 864  1972.029
 865  1859.231
 866  1723.455
 867  1680.047
 868  1872.022
 869  1674.281
 870  1677.919
 871  1622.338
 872  1801.02
 873  1889.68
 874  1768.067
 875  1879.34
 876  1850
 877  2067.766
 878  1972.367
 879  1887.846
 880  1928.458
 881  1819.555
 882  1907.739
 883  1644.31
 884  1646.748
 885  1585.085
 886  1682.795
 887  1750.145
 888  1753.174
 889  1855.606
 890  1829.492
 891  1848.052
 892  1717.731
 893  1747.251
 894  1701.258
 895  1780.293
 896  1777.945
 897  1723.87
 898  1768.858
 899  1676.021
 900  1654.131
 901  1662.623
 902  1806.95
 903  1845.455
 904  1759.243
 905  1757.938
 906  1781.392
 907  1815.853
 908  1729.986
 909  1631.576
 910  1702.091
 911  1687.572
 912  1853.343
 913  1774.981
 914  2015.57
 915  2068.439
 916  2066.739
 917  1975.925
 918  1807.727
 919  1749.221
 920  1624.43
 921  1777.518
 922  1756.53
 923  1738.162
 924  1871.967
 925  1930.537
 926  2013.784
 927  1883.559
 928  2130.273
 929  2068.528
 930  2074.65
 931  1955.767
 932  1988.103
 933  2025.588
 934  2108.108
 935  2250.486
 936  2100.726
 937  1952.494
 938  1848.19
 939  1826.728
 940  1825.3
 941  1797.607
 942  1862.676
 943  1832.033
 944  1651.987
 945  1737.407
 946  1705.041
 947  1931.773
 948  1845.187
 949  2007.22
 950  1897.947
 951  1845.899
 952  1753.765
 953  1776.018
 954  1783.433
 955  1758.76
 956  1856.992
 957  1806.577
 958  1926.223
 959  1855.349
 960  1905.277
 961  1952.138
 962  1972.326
 963  2028.571
 964  1857.16
 965  1807.402
 966  1668.366
 967  1737.51
 968  1704.672
 969  1693.674
 970  1793.036
 971  1794.48
 972  1881.292
 973  1910.097
 974  2035.141
 975  1909.134
 976  1630.286
 977  1559.565
 978  1481.202
 979  1638.895
 980  1638.936
 981  1551.433
 982  1484.88
 983  1591.928
 984  1716.008
 985  1659.896
 986  1718.09
 987  1766.372
 988  1876.627
 989  1748.553
 990  1779.37
 991  1867.515
 992  1940.494
 993  1974.819
 994  1745.712
 995  1657.197
 996  1577.517
 997  1802.88
 998  1803.882
 999  1759.372
1000  1745.397
1001  1611.36
1002  1679.051
1003  1554.811
1004  1656.134
1005  1658.281
1006  1687.168
1007  1811.616
1008  1696.283
1009  1730.001
1010  1751.629
1011  1761.811
1012  1566.679
1013  1446.111
1014  1537.983
1015  1636.521
1016  1780.852
1017  1806.767
1018  1861.684
1019  1913.034
1020  1908.618
1021  1728.022
1022  1538.496
1023  1624.111
