# Input file       =  1211858286.131636_cleaned.dat
# Candidate        =  PSR_0332+5434
# Telescope        =  AR
# Epoch_topo       =  58270.137790875415
# Epoch_bary       =  N/A
# T_sample         =  0.002
# Data Folded      =  7143424
# Data Avg         =  0.372698335860291
# Data StdDev      =  6.18763390096234 
# Profile Bins     =  512
# Profile Avg      =  5199.8497921039  
# Profile StdDev   =  730.874557673686 
# Reduced chi-sqr  =  0.751
# Prob(Noise)      <  1   (~0.0 sigma)
# P_topo (ms)      =  714.516796317294  +/- 5.1e-05
# P'_topo (s/s)    =  -0                +/- 2.76e-11
# P''_topo (s/s^2) =  0                 +/- 1.25e-14
# P_bary (ms)      =  N/A
# P'_bary (s/s)    =  N/A
# P''_bary (s/s^2) =  N/A
# P_orb (s)        =  N/A
# asin(i)/c (s)    =  N/A
# eccentricity     =  N/A
# w (rad)          =  N/A
# T_peri           =  N/A
######################################################
   0  4938.277
   1  5923.095
   2  6108.541
   3  5698.602
   4  5388.094
   5  5092.355
   6  4794.601
   7  4548.861
   8  5192.219
   9  5366.187
  10  5676.07
  11  4913.039
  12  4650.655
  13  4987.079
  14  5448.713
  15  4749.022
  16  4944.407
  17  5590.045
  18  6265.413
  19  5542.63
  20  4946.659
  21  4841.369
  22  4620.525
  23  4727.144
  24  4458.472
  25  4988.348
  26  5001.961
  27  5323.14
  28  5041.485
  29  4848.833
  30  5049.917
  31  5098.899
  32  4563.382
  33  4970.466
  34  5125.538
  35  5371.098
  36  4958.68
  37  5201.208
  38  5488.119
  39  5279.697
  40  5181.369
  41  4190.866
  42  4769.685
  43  5042.004
  44  5078.085
  45  4416.842
  46  4744.78
  47  5013.125
  48  5483.501
  49  5129.605
  50  5684.851
  51  5661.532
  52  5530.121
  53  5097.921
  54  5062.011
  55  5173.468
  56  4688.834
  57  4472.486
  58  4541.875
  59  5345.806
  60  5755.89
  61  4909.433
  62  4726.465
  63  4984.177
  64  4904.081
  65  5202.802
  66  4983.202
  67  6220.901
  68  6086.231
  69  5817.279
  70  5328.337
  71  5501.507
  72  5431.501
  73  4518.98
  74  4854.436
  75  5412.411
  76  5864.815
  77  5240.438
  78  4599.034
  79  5444.779
  80  5748.175
  81  4960.259
  82  5040.52
  83  5474.32
  84  5978.896
  85  6020.134
  86  5030.721
  87  5518.046
  88  5482.203
  89  5209.707
  90  5214.306
  91  5007.558
  92  5652.245
  93  5396.896
  94  5318.915
  95  4982.341
  96  5261.837
  97  5232.253
  98  4911.563
  99  4957.838
 100  5436.641
 101  6272.05
 102  5720.765
 103  5390.815
 104  5526.38
 105  5296.867
 106  4734.804
 107  5015.694
 108  4531.947
 109  5177.278
 110  5140.449
 111  5386.58
 112  5414.035
 113  5139.213
 114  5095.675
 115  4997.359
 116  5582.548
 117  5494.181
 118  5420.352
 119  5239.357
 120  5542.214
 121  5506.655
 122  5459.533
 123  4979.319
 124  5270.112
 125  4869.847
 126  5146.526
 127  5283.847
 128  4693.402
 129  4937.067
 130  4773.657
 131  5109.332
 132  5379.913
 133  5685.902
 134  5908.864
 135  5255.076
 136  4798.287
 137  4720.79
 138  4665.687
 139  4729.345
 140  4138.801
 141  5284.166
 142  5272.678
 143  4827.835
 144  4574.023
 145  4409.122
 146  4711.065
 147  4487.239
 148  5076.934
 149  5344.755
 150  5940.626
 151  5591.012
 152  5247.194
 153  5357.447
 154  5256.588
 155  4856.724
 156  4704.138
 157  4795.594
 158  5289.288
 159  5227.84
 160  4792.255
 161  4457.654
 162  4141.355
 163  4605.413
 164  4811.888
 165  4767.5
 166  5407.262
 167  5830.223
 168  5826.525
 169  5085.421
 170  4954.672
 171  4738.158
 172  4274.412
 173  4420.631
 174  4897.565
 175  5197.87
 176  4825.043
 177  4839.376
 178  5063.47
 179  5175.98
 180  4911.393
 181  4764.527
 182  4638.949
 183  5822.452
 184  5618.902
 185  5324.001
 186  5570.322
 187  5718.825
 188  5487.377
 189  4863.71
 190  5126.931
 191  5160.881
 192  5203.884
 193  4927.266
 194  4879.959
 195  5164.162
 196  5289.158
 197  5131.245
 198  5542.134
 199  5468.96
 200  5855.609
 201  5710.81
 202  5411.202
 203  5248.539
 204  5048.708
 205  5054.149
 206  4243.162
 207  4909.331
 208  5661.94
 209  5443.492
 210  5519.106
 211  4963.598
 212  4876.801
 213  5318.599
 214  5104.429
 215  5692.597
 216  5903.822
 217  5888.143
 218  5693.064
 219  6000.979
 220  5747.291
 221  4780.951
 222  4744.678
 223  4951.035
 224  5472.658
 225  5868.708
 226  5851.521
 227  5625.119
 228  6310.154
 229  6709.116
 230  7134.615
 231  7183.286
 232  7361.36
 233  6361.001
 234  5483.754
 235  5459.447
 236  5255.079
 237  5666.358
 238  5118.916
 239  4963.684
 240  5260.251
 241  5583.605
 242  5656.03
 243  4835.925
 244  5023.956
 245  5311.69
 246  5162.736
 247  5147.812
 248  5464.635
 249  6377.248
 250  6008.566
 251  5370.149
 252  5452.882
 253  5258.457
 254  5018.906
 255  4898.413
 256  5435.72
 257  5729.403
 258  5344.867
 259  5214.907
 260  4939.861
 261  5133.093
 262  5219.249
 263  5241.275
 264  5663.37
 265  5454.363
 266  5770.867
 267  5776.598
 268  4708.702
 269  4871.177
 270  5155.418
 271  5146.149
 272  5156.414
 273  4893.661
 274  5198.566
 275  4817.864
 276  5092.262
 277  4718.607
 278  4784.547
 279  4673.858
 280  4446.376
 281  5120.821
 282  5488.011
 283  5705.87
 284  5525.994
 285  5408.194
 286  5208.103
 287  4369.518
 288  4181.736
 289  4470.845
 290  4152.72
 291  5086.455
 292  5054.998
 293  4891.076
 294  4923.089
 295  4883.951
 296  4682.836
 297  4759.61
 298  5447.403
 299  5631.811
 300  5351.146
 301  4976.089
 302  5237.607
 303  5441.431
 304  4786.951
 305  3960.577
 306  4653.741
 307  5441.693
 308  4811.464
 309  4125.025
 310  4159.041
 311  4848.595
 312  5058.362
 313  5445.651
 314  5435.911
 315  5411.434
 316  5431.207
 317  5004.644
 318  5392.438
 319  5608.474
 320  4998.133
 321  4649.273
 322  4363.122
 323  5661.023
 324  5158.582
 325  4957.066
 326  5016.72
 327  5051.445
 328  5323.043
 329  5190.516
 330  5261.805
 331  5416.712
 332  5403.483
 333  5340.389
 334  5259.237
 335  5267.876
 336  5345.499
 337  5190.352
 338  5132.813
 339  5253.024
 340  5537.52
 341  4997.093
 342  4294.47
 343  4320.222
 344  4967.917
 345  5144.41
 346  5335.24
 347  5323.403
 348  6285.646
 349  6173.373
 350  5476.416
 351  5010.865
 352  5015.113
 353  4881.973
 354  4541.365
 355  5123.542
 356  5143.921
 357  5435.5
 358  5282.904
 359  5113.553
 360  4974.599
 361  4648.41
 362  4415.856
 363  5054.438
 364  5725.355
 365  6067.178
 366  5175.883
 367  5156.859
 368  5395.152
 369  5266.68
 370  5237.97
 371  4675.186
 372  4870.169
 373  4620.555
 374  4656.772
 375  4493.792
 376  4647.753
 377  4979.999
 378  4760.974
 379  4419.532
 380  5122.479
 381  5549.367
 382  5756.1
 383  4947.311
 384  4858.001
 385  5173.554
 386  4918.42
 387  4467.01
 388  4403.395
 389  4978.743
 390  5335.402
 391  5151.271
 392  4847.076
 393  4561.678
 394  4555.008
 395  4840.28
 396  4804.592
 397  5812.138
 398  5423.638
 399  5667.245
 400  5434.262
 401  5667.915
 402  5461.853
 403  4928.022
 404  4241.961
 405  4045.016
 406  5096.648
 407  5280.307
 408  4802.324
 409  5306.72
 410  5815.687
 411  5725.17
 412  5562.219
 413  4986.529
 414  5296.93
 415  5524.401
 416  5232.82
 417  5560.021
 418  5630.386
 419  5383.092
 420  4875.194
 421  5007.858
 422  5647.854
 423  5485.31
 424  5262.08
 425  4839.242
 426  5299.019
 427  5420.97
 428  5202.004
 429  5078.104
 430  5401.889
 431  6179.917
 432  5959.486
 433  5861.741
 434  5183.728
 435  5220.624
 436  5201.878
 437  5086.53
 438  5047.203
 439  5421.396
 440  5671.205
 441  5641.795
 442  5159.037
 443  5211.858
 444  5252.001
 445  5031.602
 446  5606.268
 447  5841.121
 448  6176.137
 449  5585.32
 450  5232.488
 451  5511.338
 452  5346.808
 453  5279.385
 454  5423.271
 455  5194.657
 456  5326.341
 457  4938.191
 458  4622.961
 459  5174.716
 460  5259.139
 461  5254.333
 462  5136.626
 463  5802.52
 464  6173.979
 465  5747.952
 466  5542.77
 467  5170.046
 468  5092.261
 469  5081.899
 470  4454.102
 471  4967.831
 472  5138.182
 473  5852.157
 474  5112.945
 475  5003.803
 476  4852.696
 477  4741.776
 478  5229.498
 479  5036.169
 480  5670.19
 481  5831.785
 482  5319.013
 483  5076.333
 484  5589.077
 485  5422.253
 486  4831.782
 487  4128.482
 488  5245.542
 489  5469.788
 490  4699.01
 491  4651.169
 492  5283.014
 493  5555.96
 494  5204.191
 495  5395.172
 496  5622.104
 497  5677.38
 498  5811.238
 499  5468.889
 500  5815.818
 501  5410.744
 502  5186.775
 503  5141.659
 504  4827.49
 505  5869.055
 506  5568.152
 507  4857.083
 508  4716.011
 509  5081.845
 510  5027.365
 511  4610.892
