# Input file       =  1211184299.108801_cleaned.dat
# Candidate        =  PSR_0332+5434
# Telescope        =  AR
# Epoch_topo       =  58262.337015148158
# Epoch_bary       =  N/A
# T_sample         =  0.002
# Data Folded      =  7340032
# Data Avg         =  0.170131880734905
# Data StdDev      =  4.6442122696843  
# Profile Bins     =  1024
# Profile Avg      =  1219.12593336152 
# Profile StdDev   =  393.197782444144 
# Reduced chi-sqr  =  0.732
# Prob(Noise)      <  1   (~0.0 sigma)
# P_topo (ms)      =  714.524442725726  +/- 0.000451
# P'_topo (s/s)    =  -0                +/- 2.38e-10
# P''_topo (s/s^2) =  0                 +/- 1.05e-13
# P_bary (ms)      =  N/A
# P'_bary (s/s)    =  N/A
# P''_bary (s/s^2) =  N/A
# P_orb (s)        =  N/A
# asin(i)/c (s)    =  N/A
# eccentricity     =  N/A
# w (rad)          =  N/A
# T_peri           =  N/A
######################################################
   0  1392.49
   1  1326.34
   2  1313.592
   3  1334.102
   4  1325.968
   5  1306.673
   6  1214.478
   7  1255.765
   8  1437.959
   9  1501.84
  10  1461.912
  11  1290.92
  12  1212.712
  13  1138.154
  14  1166.113
  15  978.6103
  16  952.2173
  17  851.6656
  18  1022.085
  19  1266.213
  20  1450.632
  21  1306.484
  22  1155.519
  23  1236.39
  24  1330.26
  25  1456.205
  26  1384.379
  27  1413.898
  28  1405.864
  29  1447.921
  30  1410.696
  31  1183.01
  32  972.0491
  33  949.2749
  34  1022.441
  35  1065.06
  36  1028.307
  37  1069.763
  38  1128.495
  39  1099.412
  40  1124.011
  41  1134.693
  42  1126.426
  43  1093.801
  44  1169.631
  45  1278.966
  46  1366.276
  47  1231.24
  48  1180.062
  49  1219.872
  50  1248.088
  51  1189.886
  52  1042.955
  53  1036.397
  54  975.7104
  55  1050.606
  56  1081.043
  57  1150.787
  58  1033.246
  59  982.541
  60  904.6793
  61  881.5098
  62  950.5328
  63  988.0309
  64  980.9372
  65  884.4979
  66  918.1556
  67  900.2755
  68  883.1746
  69  975.8955
  70  1063.657
  71  1088.422
  72  1099.463
  73  1094.62
  74  1218.531
  75  1194.727
  76  1301.108
  77  1311.858
  78  1424.192
  79  1362.671
  80  1265.517
  81  1260.989
  82  1157.54
  83  1148.549
  84  1134.278
  85  1366.033
  86  1392.214
  87  1392.295
  88  1351.622
  89  1372.597
  90  1198.262
  91  1159.731
  92  1324.678
  93  1397.891
  94  1353.336
  95  1238.543
  96  1214.206
  97  1162.829
  98  1264.53
  99  1323.571
 100  1238.727
 101  1196.4
 102  1087.883
 103  1150.306
 104  1096.579
 105  1139.941
 106  1139.338
 107  1170.219
 108  1283.041
 109  1300.84
 110  1315.797
 111  1194.665
 112  1196.664
 113  1346.127
 114  1414.977
 115  1410.453
 116  1455.716
 117  1539.773
 118  1476.671
 119  1347.286
 120  1267.451
 121  1201.661
 122  1104.005
 123  1100.634
 124  1119.465
 125  1215.046
 126  1195.747
 127  1171.433
 128  1222.688
 129  1287.36
 130  1347.619
 131  1376.802
 132  1448.954
 133  1479.914
 134  1463.284
 135  1360.333
 136  1287.389
 137  1237.406
 138  1373.721
 139  1497.865
 140  1450.597
 141  1377.094
 142  1391.125
 143  1415.227
 144  1382.476
 145  1318.603
 146  1290.075
 147  1308.401
 148  1353.101
 149  1397.091
 150  1379.809
 151  1383.886
 152  1382.383
 153  1322.134
 154  1286.937
 155  1260.986
 156  1339.392
 157  1359.117
 158  1483.966
 159  1484.354
 160  1496.536
 161  1422.336
 162  1385.311
 163  1397.822
 164  1319.584
 165  1327.669
 166  1329.69
 167  1344.679
 168  1325.461
 169  1282.181
 170  1352.53
 171  1371.054
 172  1414.674
 173  1391.1
 174  1278.219
 175  1156.625
 176  1170.915
 177  1246.867
 178  1223.669
 179  1132.56
 180  1127.949
 181  1228.41
 182  1290.077
 183  1309.765
 184  1264.766
 185  1312.298
 186  1281.726
 187  1173.927
 188  1096.054
 189  1064.128
 190  1118.708
 191  1063.845
 192  952.546
 193  1034.281
 194  1153.245
 195  1183.055
 196  1108.953
 197  1102.738
 198  1073.451
 199  910.3136
 200  861.7232
 201  1002.127
 202  1139.624
 203  1184.147
 204  1171.764
 205  1313.362
 206  1318.704
 207  1330.371
 208  1266.501
 209  1271.415
 210  1238.306
 211  1229.155
 212  1356.552
 213  1337.011
 214  1219.332
 215  1186.41
 216  1149.974
 217  1177.433
 218  1149.866
 219  1090.013
 220  1185.972
 221  1213.983
 222  1278.218
 223  1160.52
 224  1171.117
 225  1192.066
 226  1211.844
 227  1147.356
 228  1154.59
 229  1124.738
 230  1174.346
 231  1268.467
 232  1162.058
 233  1104.562
 234  1079.349
 235  1126.318
 236  935.7502
 237  807.1833
 238  723.9402
 239  786.082
 240  945.1273
 241  1055.39
 242  1157.126
 243  1217.465
 244  1278.555
 245  1228.894
 246  1151.915
 247  1068.073
 248  1094.998
 249  1066.924
 250  989.25
 251  991.7061
 252  1011.641
 253  1075.643
 254  992.2596
 255  1085.396
 256  1122.866
 257  1112.612
 258  1109.635
 259  1086.919
 260  1088.536
 261  1013.458
 262  946.6457
 263  982.8471
 264  986.777
 265  1065.206
 266  997.2665
 267  966.2032
 268  929.5018
 269  1065.436
 270  1195.331
 271  1261.847
 272  1255.283
 273  1271.39
 274  1151.982
 275  1058.032
 276  998.3312
 277  1134.583
 278  1213.023
 279  1174.151
 280  1181.855
 281  1256.253
 282  1289.099
 283  1205.107
 284  1219.373
 285  1283.442
 286  1240.141
 287  1144.827
 288  1129.514
 289  1195.769
 290  1179.718
 291  1273.14
 292  1312.104
 293  1361.025
 294  1200.488
 295  1145.363
 296  1113.724
 297  1109.386
 298  1047.897
 299  1022.722
 300  1031.927
 301  1103.893
 302  1180.266
 303  1312.436
 304  1316.086
 305  1343.339
 306  1414.51
 307  1465.05
 308  1384.996
 309  1272.02
 310  1273.389
 311  1153.762
 312  966.8871
 313  875.6922
 314  978.6311
 315  1044.103
 316  1079.746
 317  1140.887
 318  1243.26
 319  1164.645
 320  1106.319
 321  1149.423
 322  1097.568
 323  1037.875
 324  1070.236
 325  1129.689
 326  1121.154
 327  1015.818
 328  1075.662
 329  919.6078
 330  805.5438
 331  856.0416
 332  944.5785
 333  1014.637
 334  840.9364
 335  915.7435
 336  1019.511
 337  1084.885
 338  1006.154
 339  968.2357
 340  893.0581
 341  862.3363
 342  838.4148
 343  919.9803
 344  972.8717
 345  1007.137
 346  1128.691
 347  1087.679
 348  1078.429
 349  996.7416
 350  963.0698
 351  998.4296
 352  1014.281
 353  1162.579
 354  1217.438
 355  1232.436
 356  1186.365
 357  1157.957
 358  1145.929
 359  1057.379
 360  941.6757
 361  1005.936
 362  987.4235
 363  1050.679
 364  1131.73
 365  1097.429
 366  1080.995
 367  954.8256
 368  1007.982
 369  959.9626
 370  1100.587
 371  1198.783
 372  1280.955
 373  1257.831
 374  1339.364
 375  1330.56
 376  1314.865
 377  1313.48
 378  1278.93
 379  1275.557
 380  1183.164
 381  1244.969
 382  1282.408
 383  1293.231
 384  1219.608
 385  1196.922
 386  1253.751
 387  1352.586
 388  1281.826
 389  1239.009
 390  1239.124
 391  1390.883
 392  1295.569
 393  1228.206
 394  1069.572
 395  1065.479
 396  1041.61
 397  1057.399
 398  1023.111
 399  1020.111
 400  1093.217
 401  1013.228
 402  1130.678
 403  1110.844
 404  1061.56
 405  983.277
 406  1068.696
 407  1219.107
 408  1276.716
 409  1176.174
 410  1079.131
 411  1130.577
 412  1127.857
 413  1267.711
 414  1300.114
 415  1459.628
 416  1347.333
 417  1290.84
 418  1322.321
 419  1445.39
 420  1400.208
 421  1357.19
 422  1261.1
 423  1218.577
 424  1225.69
 425  1279.053
 426  1327.499
 427  1341.312
 428  1379.436
 429  1407.005
 430  1380.23
 431  1421.416
 432  1350.214
 433  1303.446
 434  1362.453
 435  1482.081
 436  1381.098
 437  1179.901
 438  1140.618
 439  1307.936
 440  1308.295
 441  1363.363
 442  1334.65
 443  1342.94
 444  1285.132
 445  1117.772
 446  1105.226
 447  1059.285
 448  1146.502
 449  1258.616
 450  1464.063
 451  1543.932
 452  1447.19
 453  1318.695
 454  1180.428
 455  1194.991
 456  1187.604
 457  1157.779
 458  1237.36
 459  1334.369
 460  1401.603
 461  1352.055
 462  1267.499
 463  1211.461
 464  1179.957
 465  1195.747
 466  1193.365
 467  1141.635
 468  1166.397
 469  1264.167
 470  1268.507
 471  1243.484
 472  1151.578
 473  1134.98
 474  1169.69
 475  1238.424
 476  1281.275
 477  1194.72
 478  1168.812
 479  1136.558
 480  1172.412
 481  1133.155
 482  1180.225
 483  1212.92
 484  1260.53
 485  1307.99
 486  1343.024
 487  1316.454
 488  1228.057
 489  1132.774
 490  1119.842
 491  1135.696
 492  1204.844
 493  1198.471
 494  1236.568
 495  1117.241
 496  1057.965
 497  1088.719
 498  1162.085
 499  1195.297
 500  1167.663
 501  1166.182
 502  1176.101
 503  1029.622
 504  953.8497
 505  864.0764
 506  925.9073
 507  965.0227
 508  846.7105
 509  851.7133
 510  847.6268
 511  993.0244
 512  1026.196
 513  1053.488
 514  1101.555
 515  1123.569
 516  1056.265
 517  940.8619
 518  811.5885
 519  786.4757
 520  828.3865
 521  750.3158
 522  756.0904
 523  796.9863
 524  965.6872
 525  968.4781
 526  934.1695
 527  964.4442
 528  1019.127
 529  1040.747
 530  1032.959
 531  980.345
 532  1000.542
 533  992.567
 534  1091.008
 535  1073.756
 536  1070.934
 537  1087.194
 538  1112.811
 539  1121.31
 540  1091.864
 541  1097.03
 542  1081.116
 543  1109.813
 544  1080.232
 545  1078.391
 546  1031.974
 547  1091.074
 548  1051.161
 549  1039.922
 550  1093.995
 551  1161.919
 552  1169.889
 553  1160.412
 554  1085.534
 555  1004.079
 556  962.8926
 557  1058.726
 558  1221.159
 559  1216.659
 560  1157.705
 561  1068.693
 562  1112.336
 563  1003.214
 564  1004.875
 565  1039.055
 566  1125.253
 567  1187.671
 568  1267.728
 569  1259.51
 570  1088.155
 571  1049.535
 572  1024.176
 573  963.8538
 574  941.8209
 575  904.9029
 576  973.1595
 577  957.7263
 578  1069.11
 579  1196.126
 580  1274.029
 581  1288.022
 582  1260.482
 583  1289.055
 584  1221.489
 585  1147.122
 586  1124.906
 587  1205.24
 588  1319.644
 589  1401.658
 590  1548.686
 591  1600.852
 592  1717.353
 593  1761.251
 594  1836.838
 595  1963.89
 596  2105.54
 597  2225.591
 598  2282.012
 599  2316.978
 600  2216.858
 601  2107.427
 602  1995.395
 603  1806.663
 604  1668.118
 605  1541.834
 606  1525.562
 607  1489.225
 608  1342.855
 609  1236.206
 610  1135.802
 611  1128.579
 612  1160.648
 613  1138.228
 614  986.5431
 615  1097.672
 616  1196.466
 617  1227.327
 618  1189.115
 619  1239.104
 620  1374.337
 621  1457.411
 622  1525.466
 623  1498.192
 624  1397.154
 625  1347.251
 626  1325.35
 627  1286.72
 628  1273.712
 629  1302.533
 630  1249.203
 631  1373.919
 632  1397.148
 633  1323.177
 634  1099.537
 635  1185.809
 636  1330.836
 637  1397.333
 638  1340.715
 639  1304.835
 640  1354.154
 641  1381.351
 642  1413.23
 643  1449.541
 644  1386.778
 645  1319.187
 646  1267.497
 647  1198.596
 648  1246.369
 649  1268.292
 650  1338.158
 651  1270.799
 652  1198.46
 653  1124.722
 654  1039.639
 655  1110.046
 656  1256.58
 657  1371.935
 658  1275.91
 659  1175.11
 660  1059.359
 661  1055.294
 662  1051.143
 663  1087.938
 664  975.3108
 665  914.9353
 666  896.183
 667  926.6109
 668  959.8342
 669  926.6268
 670  1075.991
 671  1186.28
 672  1275.826
 673  1193.055
 674  1067.089
 675  963.5956
 676  1034.281
 677  1006.433
 678  967.6851
 679  840.7898
 680  968.6474
 681  1090.186
 682  1136.491
 683  1075.734
 684  1039.03
 685  1172.266
 686  1249.788
 687  1243.567
 688  1180.143
 689  1191.79
 690  1114.94
 691  1129.323
 692  1037.361
 693  1118.081
 694  1093.16
 695  1086.365
 696  1100.58
 697  1110.008
 698  1170.413
 699  1127.206
 700  1242.099
 701  1244.484
 702  1256.045
 703  1181.37
 704  1185.761
 705  1181.948
 706  1155.231
 707  1218.262
 708  1287.051
 709  1326.714
 710  1297.202
 711  1221.413
 712  1207.187
 713  1253.31
 714  1215.447
 715  1133.482
 716  1022.969
 717  1055.004
 718  1083.631
 719  1075.76
 720  915.4636
 721  911.545
 722  1076.568
 723  1317.795
 724  1426.301
 725  1385.217
 726  1433.849
 727  1473.009
 728  1408.3
 729  1160.984
 730  945.0726
 731  913.6944
 732  1004.707
 733  1133.699
 734  1213.335
 735  1276.121
 736  1425.7
 737  1392.139
 738  1363.457
 739  1268.785
 740  1344.609
 741  1384.986
 742  1397.251
 743  1398.996
 744  1463.197
 745  1511.97
 746  1524.738
 747  1372.393
 748  1320.592
 749  1279.865
 750  1244.043
 751  1261.333
 752  1202.858
 753  1270.266
 754  1250.102
 755  1217.138
 756  1250.186
 757  1259.603
 758  1238.674
 759  1181.926
 760  1175.347
 761  1190.46
 762  1217.929
 763  1224.895
 764  1232.574
 765  1166.102
 766  1091.99
 767  1041.134
 768  936.4917
 769  878.5759
 770  880.09
 771  1069.106
 772  1075.861
 773  997.4412
 774  874.6725
 775  942.8918
 776  960.4929
 777  1020.989
 778  1078.75
 779  1207.345
 780  1187.887
 781  1141.38
 782  1068.948
 783  1100.701
 784  1170.599
 785  1256.54
 786  1340.334
 787  1332.915
 788  1279.65
 789  1259.272
 790  1244.143
 791  1213.369
 792  1170.975
 793  1167.792
 794  1281.966
 795  1361.959
 796  1438.171
 797  1312.165
 798  1280.462
 799  1310.668
 800  1471.088
 801  1443.541
 802  1282.978
 803  1188.125
 804  1196.683
 805  1197.313
 806  1146.387
 807  1150.073
 808  1274.025
 809  1298.349
 810  1344.073
 811  1215.465
 812  1246.991
 813  1240.409
 814  1353.077
 815  1365.313
 816  1357.701
 817  1395.633
 818  1372.208
 819  1238.163
 820  1110.179
 821  1226.175
 822  1283.116
 823  1298.283
 824  1325.199
 825  1418.99
 826  1486.067
 827  1525.143
 828  1484.521
 829  1504.983
 830  1401.392
 831  1396.846
 832  1270.636
 833  1237.762
 834  1185.592
 835  1193.124
 836  1317.656
 837  1385.413
 838  1355.634
 839  1401.276
 840  1340.453
 841  1308.23
 842  1245.95
 843  1269.051
 844  1371.169
 845  1464.802
 846  1504.705
 847  1471.334
 848  1443.323
 849  1472.529
 850  1365.462
 851  1346.314
 852  1415.361
 853  1516.922
 854  1425.428
 855  1296.994
 856  1319.259
 857  1341.823
 858  1413.947
 859  1383.219
 860  1332.25
 861  1257.971
 862  1328.562
 863  1434.228
 864  1362.378
 865  1333.809
 866  1317.578
 867  1300.849
 868  1314.2
 869  1445.978
 870  1512.618
 871  1430.299
 872  1336.109
 873  1279.698
 874  1240.375
 875  1263.949
 876  1355.939
 877  1448.192
 878  1408.886
 879  1302.097
 880  1198.609
 881  1217.345
 882  1277.399
 883  1278.698
 884  1299.88
 885  1267.45
 886  1180.709
 887  1115.197
 888  1080.911
 889  1099.528
 890  1144.721
 891  1123.467
 892  1013.02
 893  889.7932
 894  870.7803
 895  1070.443
 896  1233.597
 897  1268.918
 898  1199.186
 899  1221.32
 900  1234.133
 901  1238.241
 902  1240.021
 903  1148.255
 904  1190.767
 905  1232.266
 906  1262.288
 907  1246.509
 908  1284.904
 909  1370.529
 910  1362.457
 911  1334.542
 912  1290.522
 913  1132.358
 914  1198.15
 915  1262.429
 916  1357.072
 917  1374.224
 918  1432.88
 919  1413.7
 920  1398.965
 921  1328.492
 922  1327.07
 923  1268.194
 924  1262.676
 925  1037.306
 926  1056.073
 927  960.2592
 928  1062.367
 929  1159.265
 930  1271.042
 931  1251.674
 932  1116.334
 933  1204.223
 934  1231.064
 935  1228.959
 936  1234.685
 937  1180.708
 938  1187.61
 939  1180.536
 940  1179.891
 941  1065.392
 942  938.9064
 943  890.7048
 944  1049.508
 945  1183.218
 946  1206.121
 947  1258.318
 948  1208.082
 949  1155.1
 950  1096.152
 951  1282.194
 952  1442.129
 953  1523.448
 954  1412.336
 955  1405.326
 956  1419.855
 957  1486.383
 958  1510.86
 959  1465.143
 960  1457.879
 961  1397.804
 962  1335.56
 963  1196.237
 964  1118.361
 965  1177.918
 966  1252.802
 967  1235.786
 968  1111.943
 969  1128.702
 970  1145.568
 971  1294.615
 972  1395.721
 973  1540.674
 974  1688.593
 975  1666.448
 976  1467.527
 977  1221.733
 978  1202.443
 979  1275.017
 980  1370.704
 981  1359.042
 982  1305.122
 983  1194.255
 984  1181.07
 985  1265.678
 986  1283.678
 987  1226.811
 988  1280.733
 989  1398.18
 990  1472.869
 991  1284.271
 992  1139.9
 993  1117.568
 994  1158.44
 995  1192.466
 996  1261.502
 997  1349.298
 998  1378.335
 999  1419.165
1000  1393.984
1001  1423.996
1002  1427.078
1003  1419.77
1004  1474.326
1005  1510.854
1006  1530.379
1007  1488.635
1008  1499.887
1009  1535.173
1010  1678.047
1011  1640.331
1012  1412.28
1013  1367.647
1014  1552.955
1015  1685.75
1016  1565.4
1017  1513.912
1018  1549.438
1019  1631.699
1020  1580.245
1021  1570.915
1022  1565.787
1023  1516.173
