# Input file       =  1211944410.106287_cleaned.dat
# Candidate        =  PSR_0332+5434
# Telescope        =  AR
# Epoch_topo       =  58271.134596137585
# Epoch_bary       =  N/A
# T_sample         =  0.002
# Data Folded      =  7208960
# Data Avg         =  0.395340651828288
# Data StdDev      =  6.20174240262785 
# Profile Bins     =  512
# Profile Avg      =  5566.27016346897 
# Profile StdDev   =  735.893641979612 
# Reduced chi-sqr  =  0.635
# Prob(Noise)      <  1   (~0.0 sigma)
# P_topo (ms)      =  714.515827224442  +/- 7.16e-05
# P'_topo (s/s)    =  -0                +/- 3.85e-11
# P''_topo (s/s^2) =  0                 +/- 1.73e-14
# P_bary (ms)      =  N/A
# P'_bary (s/s)    =  N/A
# P''_bary (s/s^2) =  N/A
# P_orb (s)        =  N/A
# asin(i)/c (s)    =  N/A
# eccentricity     =  N/A
# w (rad)          =  N/A
# T_peri           =  N/A
######################################################
   0  5882.673
   1  5238.064
   2  5218.619
   3  4936.105
   4  5269.228
   5  5262.131
   6  5478.109
   7  5831.22
   8  5233.355
   9  5313.098
  10  5833.854
  11  5692.099
  12  5843.264
  13  5994.66
  14  5945.4
  15  5923.491
  16  5566.391
  17  5338.381
  18  5292.887
  19  5265.48
  20  5470.169
  21  5312.577
  22  5651.169
  23  5853.568
  24  5379.833
  25  5349.878
  26  5340.203
  27  5385.099
  28  5362.408
  29  5358.87
  30  6231.095
  31  6301.182
  32  6514.292
  33  6537.366
  34  5707.939
  35  5959.663
  36  5740.885
  37  5845.564
  38  5388.912
  39  5772.175
  40  6234.338
  41  5668.359
  42  6043.905
  43  5689.541
  44  6221.995
  45  5399.812
  46  5536.503
  47  6028.913
  48  6122.677
  49  5992.759
  50  5892.219
  51  6343.979
  52  5894.926
  53  5628.336
  54  5400.282
  55  5527.966
  56  5660.499
  57  5727.569
  58  5791.221
  59  5520.759
  60  6076.335
  61  5759.532
  62  5868.073
  63  5924.473
  64  5865.823
  65  6213.062
  66  5354.831
  67  6064.571
  68  5510.651
  69  5842.68
  70  5889.594
  71  5978.879
  72  5838.855
  73  5490.644
  74  5469.137
  75  5364.043
  76  5304.675
  77  5681.353
  78  6251.835
  79  6010.986
  80  6184.065
  81  6699.622
  82  6442.944
  83  6296.768
  84  6157.348
  85  5532.698
  86  4980.959
  87  5431.232
  88  5726.331
  89  5803.804
  90  5711.469
  91  5487.921
  92  5208.535
  93  5257.833
  94  5784.126
  95  6283.885
  96  6085.389
  97  6193.564
  98  5974.466
  99  5719.887
 100  5321.089
 101  5269.161
 102  5297.411
 103  4935.716
 104  5265.69
 105  5712.064
 106  6092.142
 107  5591.334
 108  5107.865
 109  5622.575
 110  5381.958
 111  5773.935
 112  5675.302
 113  5988.281
 114  6242.571
 115  6176.407
 116  5924.959
 117  5344.116
 118  5688.161
 119  5303.971
 120  5237.381
 121  5794.376
 122  6088.285
 123  5518.284
 124  5419.725
 125  5348.098
 126  5287.088
 127  5919.084
 128  5898.073
 129  6202.315
 130  6087.918
 131  6249.525
 132  5988.132
 133  5538.036
 134  5675.176
 135  5448.579
 136  5559.587
 137  5145.896
 138  5180.858
 139  5047.381
 140  5417.204
 141  5801.333
 142  5558.128
 143  5780.891
 144  5491.88
 145  5471.049
 146  5576.285
 147  5976.552
 148  5863.366
 149  5634.979
 150  5975.424
 151  5697.97
 152  5701.26
 153  5266.584
 154  5571.567
 155  5226.327
 156  5510.368
 157  5429.15
 158  5257.542
 159  5892.323
 160  5920.802
 161  5976.694
 162  5782.794
 163  5639.007
 164  5608.036
 165  5498.67
 166  5336.314
 167  5364.992
 168  4807.276
 169  4994.077
 170  5088.515
 171  5305.046
 172  6014.869
 173  6093.411
 174  5188.269
 175  4689.16
 176  4917.668
 177  5289.48
 178  5699.385
 179  5884.138
 180  6709.204
 181  6366.79
 182  5776.522
 183  5503.411
 184  4909.013
 185  4748.413
 186  4648.176
 187  4884.957
 188  5466.109
 189  5768.149
 190  5472.491
 191  5295.894
 192  5555.638
 193  5187.307
 194  5169.739
 195  5147.515
 196  5610.903
 197  5484.451
 198  5395.963
 199  5384.167
 200  5088.189
 201  5304.91
 202  5006.706
 203  4989.742
 204  5201.843
 205  5587.228
 206  5531.632
 207  5484.965
 208  5697.739
 209  5325.17
 210  5047.695
 211  4766.298
 212  5725.191
 213  6313.003
 214  5903.194
 215  5657.72
 216  4967.002
 217  5418.375
 218  4969.881
 219  5088.848
 220  5167.926
 221  5328.362
 222  5233.368
 223  5083.541
 224  5649.736
 225  5346.477
 226  5172.982
 227  5000.512
 228  5868.697
 229  5821.622
 230  5670.298
 231  5847.493
 232  5587.89
 233  5094.056
 234  5061.029
 235  5172.775
 236  4573.798
 237  4841.881
 238  4843.261
 239  4749.243
 240  4719.124
 241  4905.7
 242  5725.117
 243  4994.016
 244  5272.353
 245  5973.205
 246  5835.471
 247  5615.497
 248  4928.598
 249  5586.769
 250  5255.784
 251  5007.306
 252  4894.745
 253  5450.686
 254  5656.207
 255  5429.115
 256  5362.558
 257  4714.041
 258  4965.2
 259  4741.088
 260  4940.573
 261  5369.124
 262  5537.667
 263  5905.456
 264  5889.029
 265  5713.993
 266  5026.061
 267  4693.653
 268  4671.343
 269  5280.552
 270  5094.417
 271  5164.836
 272  5702.556
 273  5110.685
 274  5205.386
 275  5379.502
 276  5283.442
 277  5414.45
 278  5597.847
 279  6198.35
 280  6142.342
 281  5731.987
 282  5304.168
 283  5379.594
 284  5341.979
 285  4833.188
 286  5491.672
 287  5428.61
 288  5771.086
 289  5677.245
 290  5839.769
 291  5983.801
 292  5171.21
 293  5714.998
 294  5559.577
 295  6290.453
 296  7088.793
 297  7534.612
 298  7388.449
 299  6767.221
 300  6434.042
 301  5882.95
 302  5548.35
 303  5327.159
 304  5629.701
 305  5267.427
 306  5425.602
 307  5723.526
 308  5517.049
 309  5759.358
 310  5027.369
 311  5611.338
 312  5443.583
 313  5369.992
 314  5273.373
 315  5221.389
 316  5848.191
 317  5547.148
 318  5409.083
 319  4981.362
 320  5240.331
 321  5468.346
 322  5493.261
 323  5600.566
 324  4797.876
 325  5655.285
 326  5632.972
 327  5778.035
 328  5643.441
 329  5599.394
 330  6120.095
 331  5441.546
 332  5345.817
 333  4922.623
 334  5375.374
 335  5149.602
 336  5467.277
 337  5561.636
 338  5199.622
 339  4940.227
 340  4471.475
 341  5461.472
 342  5596.71
 343  5799.467
 344  5642.465
 345  5958.743
 346  5803.482
 347  5342.241
 348  5309.926
 349  5411.776
 350  5249.43
 351  5081.516
 352  5749.059
 353  5708.146
 354  5377.542
 355  5081.592
 356  4746.864
 357  5014.736
 358  5447.019
 359  5481.588
 360  6183.646
 361  5618.634
 362  5662.644
 363  5523.985
 364  5509.551
 365  5373.468
 366  4908.685
 367  5327.104
 368  4945.791
 369  5617.435
 370  5982.105
 371  5759.682
 372  5254.827
 373  5451.432
 374  6096.142
 375  5833.709
 376  5588.495
 377  5811.027
 378  6541.903
 379  6729.317
 380  6155.137
 381  5753.275
 382  5792.258
 383  5521.256
 384  5042.369
 385  5226.974
 386  5247.17
 387  5949.766
 388  5764.601
 389  5826.343
 390  5771.204
 391  5694.618
 392  6170.435
 393  5750.993
 394  6431.255
 395  6368.862
 396  5831.459
 397  5617.107
 398  4941.461
 399  5703.799
 400  6002.887
 401  6275.455
 402  5753.068
 403  5596.135
 404  5804.404
 405  5702.335
 406  5794.645
 407  5408.809
 408  5819.673
 409  5885.127
 410  6002.94
 411  6412.875
 412  6262.703
 413  5638.796
 414  5728.562
 415  5690.284
 416  5346.256
 417  5257.704
 418  5228.328
 419  5907.39
 420  5782.938
 421  5763.768
 422  5638.967
 423  5279.683
 424  5995.892
 425  6070.634
 426  6371.605
 427  6623.694
 428  5771.953
 429  5507.042
 430  5184.528
 431  5234.178
 432  5413.736
 433  5471.366
 434  5479.464
 435  5718.968
 436  5947.35
 437  5281.316
 438  4998.337
 439  4861.172
 440  5501.253
 441  5899.424
 442  5766.48
 443  6132.91
 444  5582.187
 445  5867.9
 446  5754.038
 447  5250.542
 448  5300.878
 449  5195.01
 450  5273.693
 451  5294
 452  5795.667
 453  5714.337
 454  5352.786
 455  4930.598
 456  5549.988
 457  5785.749
 458  5168.218
 459  5577.841
 460  5753.867
 461  6511.56
 462  5800.577
 463  5615.726
 464  5051.672
 465  4958.956
 466  4806.021
 467  4792.279
 468  5320.039
 469  5253.651
 470  5591.632
 471  5988.979
 472  5273.858
 473  5689.512
 474  5244.8
 475  5592.897
 476  5593.044
 477  5963.715
 478  6162.476
 479  5394.14
 480  5311.196
 481  5044.341
 482  5676.156
 483  5424.799
 484  5823.898
 485  5675.525
 486  5331.388
 487  4913.016
 488  5029.659
 489  5298.679
 490  5485.286
 491  5949.636
 492  5880.054
 493  6129.103
 494  5884.032
 495  5100.067
 496  4943.643
 497  5132.135
 498  5411.148
 499  5600.419
 500  5789.115
 501  5679.206
 502  5440.759
 503  5792.713
 504  5118.74
 505  5462.796
 506  4867.731
 507  5678.847
 508  5581.516
 509  5596.819
 510  5815.572
 511  5652.537
