# Input file       =  1211614446.108927_cleaned.dat
# Candidate        =  PSR_0332+5434
# Telescope        =  AR
# Epoch_topo       =  58267.315568390361
# Epoch_bary       =  N/A
# T_sample         =  0.002
# Data Folded      =  7340032
# Data Avg         =  0.12756573481082 
# Data StdDev      =  3.2774855902772  
# Profile Bins     =  512
# Profile Avg      =  1828.96522735285 
# Profile StdDev   =  392.423301404987 
# Reduced chi-sqr  =  1.057
# Prob(Noise)      <  0.18   (~0.9 sigma)
# P_topo (ms)      =  714.519559784785  +/- 8.69e-05
# P'_topo (s/s)    =  -0                +/- 4.59e-11
# P''_topo (s/s^2) =  0                 +/- 2.03e-14
# P_bary (ms)      =  N/A
# P'_bary (s/s)    =  N/A
# P''_bary (s/s^2) =  N/A
# P_orb (s)        =  N/A
# asin(i)/c (s)    =  N/A
# eccentricity     =  N/A
# w (rad)          =  N/A
# T_peri           =  N/A
######################################################
   0  1426.446
   1  1368.092
   2  1344.63
   3  1618.591
   4  1733.795
   5  1489.416
   6  1159.42
   7  1406.005
   8  1563.718
   9  1295.51
  10  1553.141
  11  1690.269
  12  1636.568
  13  1579.582
  14  1624.231
  15  1875.337
  16  1962.573
  17  1842.3
  18  2051.252
  19  2202.418
  20  1863.192
  21  1891.112
  22  1757.378
  23  2083.51
  24  1949.248
  25  1995.682
  26  2124.846
  27  1799.329
  28  1819.646
  29  2111.236
  30  2195.943
  31  2035.536
  32  1906.748
  33  1625.12
  34  1811.358
  35  1996.552
  36  2043.386
  37  1770.789
  38  1922.361
  39  1993.266
  40  1485.359
  41  1392.421
  42  1628.707
  43  1639.685
  44  1275.058
  45  1673.451
  46  2015.756
  47  1819.998
  48  1905.268
  49  1782.77
  50  1763.442
  51  1952.428
  52  2073.187
  53  1871.952
  54  1989.123
  55  2243.189
  56  2053.877
  57  1876.07
  58  1820.269
  59  1716.228
  60  1602.134
  61  1674.34
  62  1746.321
  63  1629.117
  64  1582.845
  65  1712.502
  66  1473.379
  67  1408.811
  68  1389.046
  69  1647.18
  70  1911.553
  71  1664.364
  72  1597.948
  73  1850.5
  74  2055.859
  75  1818.986
  76  1884.236
  77  2120.709
  78  1738.013
  79  1673.257
  80  2049.114
  81  1844.463
  82  1748.284
  83  1825.07
  84  1926.383
  85  2002.054
  86  2283.247
  87  2113.847
  88  1736.804
  89  1820.789
  90  1882.77
  91  1823.923
  92  1913.89
  93  2010.596
  94  1800.302
  95  2251.853
  96  2419.42
  97  2191.324
  98  1771.871
  99  1852.552
 100  1843.267
 101  2003.17
 102  2110.108
 103  2054.659
 104  1652.063
 105  1873.085
 106  2110.478
 107  1989.791
 108  1788.565
 109  2173.839
 110  2293.968
 111  2021.153
 112  1812.592
 113  2002.115
 114  2272.417
 115  2256.21
 116  1892.684
 117  1661.207
 118  1876.631
 119  1914.6
 120  1918.313
 121  1814.499
 122  1903.482
 123  2083.854
 124  2225.048
 125  2025.241
 126  1910.593
 127  1718.137
 128  1680.881
 129  1831.577
 130  1961.304
 131  1898.378
 132  1352.429
 133  1241.735
 134  1618.82
 135  1875.047
 136  2016.777
 137  1732.703
 138  1635.094
 139  1744.289
 140  1652.408
 141  1333.108
 142  1416.458
 143  1910.833
 144  1807.199
 145  1650.891
 146  1504.151
 147  1817.202
 148  1909.581
 149  1684.623
 150  1649.008
 151  1814.137
 152  1648.044
 153  1505.942
 154  1553.127
 155  1625.642
 156  1851.629
 157  1876.965
 158  1603.148
 159  1321.266
 160  1733.346
 161  1874.506
 162  1711.872
 163  1772.461
 164  1494.356
 165  1189.307
 166  1252.891
 167  1631.589
 168  1671.228
 169  1806.951
 170  1971.406
 171  1934.683
 172  1767.626
 173  1654.708
 174  1768.823
 175  1728.795
 176  1906.016
 177  1916.964
 178  1746.965
 179  1819.411
 180  2089.203
 181  2503.878
 182  2054.206
 183  2205.966
 184  2086.294
 185  1950.113
 186  1997.011
 187  2077.879
 188  2127.072
 189  2205.073
 190  1940.445
 191  1769.052
 192  2035.366
 193  2162.774
 194  2192.116
 195  2304.293
 196  2146.102
 197  1752.898
 198  1600.599
 199  1721.426
 200  1914.922
 201  2070.326
 202  1907.502
 203  1771.119
 204  1629.643
 205  1667.352
 206  2042.493
 207  1978.465
 208  1816.907
 209  2206.129
 210  1946.36
 211  1995.902
 212  1900.191
 213  1509.133
 214  1689.638
 215  2015.508
 216  2073.215
 217  1984.434
 218  1677.035
 219  1596.69
 220  1571.509
 221  1419.887
 222  1744.876
 223  1638.638
 224  1339.041
 225  1399.443
 226  1147.377
 227  1888.162
 228  2070.896
 229  2022.115
 230  1708.002
 231  1194.121
 232  1550.36
 233  1939.347
 234  1903.874
 235  1758.572
 236  1579.489
 237  1927.588
 238  2088.603
 239  1980.591
 240  1768.491
 241  1675.803
 242  2016.2
 243  2037.243
 244  1737.653
 245  1660.319
 246  2102.387
 247  2262.377
 248  2084.068
 249  1777.362
 250  1984.198
 251  2058.495
 252  1977.523
 253  2294.653
 254  2135.833
 255  1741.621
 256  1759.934
 257  1785.415
 258  1799.981
 259  2105.35
 260  1812.754
 261  1765.383
 262  1599.023
 263  1681.274
 264  1641.281
 265  1480.191
 266  1550.083
 267  1944.523
 268  1906.737
 269  2013.836
 270  1516.669
 271  1375.272
 272  1664.487
 273  1689.163
 274  1625.384
 275  1658.588
 276  1779.574
 277  1544.59
 278  1595.678
 279  1950.109
 280  1958.351
 281  1867.508
 282  1932.841
 283  1622.884
 284  1865.802
 285  2041.886
 286  2240.402
 287  2051.085
 288  1736.752
 289  1617.595
 290  1716.084
 291  2103.41
 292  2427.008
 293  2301.525
 294  2447.827
 295  2347.269
 296  2462.227
 297  2898.428
 298  3570.45
 299  3746.742
 300  3665.32
 301  3207.739
 302  2589.131
 303  2132.462
 304  1751.976
 305  1992.532
 306  1908.676
 307  2002.567
 308  1704.51
 309  1651.337
 310  1571.123
 311  1635.428
 312  1636.164
 313  1775.784
 314  1817.769
 315  1480.016
 316  1506.346
 317  1488.783
 318  1492.808
 319  1384.679
 320  1725.897
 321  1828.351
 322  1391.219
 323  1430.434
 324  1678.288
 325  1837.217
 326  1419.735
 327  1506.348
 328  1558.463
 329  1364.582
 330  1397.355
 331  1569.767
 332  1649.849
 333  1645.139
 334  1694.244
 335  1620.402
 336  1652.316
 337  1627.623
 338  1344.797
 339  1603.014
 340  1821.016
 341  1584.624
 342  1470.465
 343  1349.575
 344  1438.853
 345  1709.607
 346  2009.255
 347  1911.605
 348  1661.998
 349  1386.426
 350  1478.067
 351  1797.838
 352  2006.755
 353  1878.825
 354  1825.286
 355  1819.97
 356  1575.951
 357  1755.104
 358  2022.175
 359  1921.528
 360  1817.494
 361  1873.894
 362  1751.797
 363  1827.08
 364  1650.492
 365  1911.718
 366  1834.9
 367  1930.136
 368  1690.129
 369  1579.108
 370  2067.268
 371  1919.013
 372  1860.148
 373  1589.732
 374  1601.717
 375  1516.136
 376  1522.042
 377  1624.458
 378  1829.945
 379  2049.662
 380  1621.024
 381  1555.884
 382  1741.945
 383  2100.826
 384  2176.369
 385  2061.539
 386  2028.522
 387  1853.59
 388  1432.606
 389  1575.59
 390  1616.195
 391  1848.478
 392  1585.772
 393  1431.294
 394  1943.893
 395  1979.196
 396  1867.355
 397  2088.198
 398  2457.663
 399  2168.508
 400  1438.542
 401  1510.646
 402  1870.491
 403  2021.116
 404  1880.979
 405  1914.968
 406  1954.821
 407  2233.554
 408  2250.048
 409  1983.455
 410  2220.436
 411  2294.602
 412  2246.572
 413  2062.805
 414  2065.604
 415  2059.674
 416  1866.96
 417  1818.647
 418  1808.712
 419  1986.911
 420  1713.172
 421  1610.301
 422  1426.598
 423  1740.546
 424  1827.361
 425  2050.454
 426  2443.927
 427  1864.056
 428  1823.484
 429  1813.043
 430  1823.65
 431  2050.648
 432  2127.501
 433  2106.889
 434  1723.386
 435  1572.45
 436  1777.562
 437  1934.397
 438  2068.894
 439  2005.312
 440  2109.072
 441  2266.49
 442  1948.728
 443  1843.262
 444  1980.296
 445  1952.026
 446  1967.854
 447  1824.645
 448  1736.294
 449  1814.942
 450  1988.213
 451  1856.253
 452  1791.39
 453  1649.727
 454  1619.935
 455  1876.062
 456  2062.294
 457  2081.921
 458  1825.825
 459  1550.834
 460  1656.866
 461  1673.987
 462  1991.169
 463  1939.787
 464  1460.356
 465  1565.711
 466  1510.081
 467  1722.607
 468  1891.515
 469  1692.617
 470  1981.892
 471  2133.772
 472  2261.34
 473  1810.588
 474  1842.09
 475  1799.386
 476  1545.984
 477  1726.897
 478  1586.829
 479  1894.185
 480  1702.396
 481  1346.398
 482  1637.378
 483  1718.399
 484  1696.831
 485  1746.819
 486  1606.617
 487  1327.197
 488  1262.22
 489  1436.921
 490  1753.578
 491  1927.897
 492  1775.201
 493  1562.42
 494  1486.288
 495  1832.444
 496  1909.58
 497  2008.309
 498  1991.772
 499  1976.817
 500  1740.801
 501  1715.695
 502  1977.239
 503  1836.447
 504  1923.607
 505  1657.565
 506  1644.66
 507  2016.605
 508  1759.342
 509  1918.1
 510  1902.535
 511  1728.496
