# Input file       =  1211944410.106287_cleaned.dat
# Candidate        =  PSR_0332+5434
# Telescope        =  AR
# Epoch_topo       =  58271.134596137585
# Epoch_bary       =  N/A
# T_sample         =  0.002
# Data Folded      =  7208960
# Data Avg         =  0.0725419663016795
# Data StdDev      =  1.00007148411417 
# Profile Bins     =  512
# Profile Avg      =  1021.3325333655  
# Profile StdDev   =  118.6676580396   
# Reduced chi-sqr  =  1.193
# Prob(Noise)      <  0.00174   (~2.9 sigma)
# P_topo (ms)      =  714.515827467891  +/- 0.000205
# P'_topo (s/s)    =  -0                +/- 1.1e-10
# P''_topo (s/s^2) =  0                 +/- 4.95e-14
# P_bary (ms)      =  N/A
# P'_bary (s/s)    =  N/A
# P''_bary (s/s^2) =  N/A
# P_orb (s)        =  N/A
# asin(i)/c (s)    =  N/A
# eccentricity     =  N/A
# w (rad)          =  N/A
# T_peri           =  N/A
######################################################
   0  1135.161
   1  975.1668
   2  1110.961
   3  1166.435
   4  1161.823
   5  1025.955
   6  1001.772
   7  1099.812
   8  1102.736
   9  1031.695
  10  901.7053
  11  956.0303
  12  1070.877
  13  1030.282
  14  1048.286
  15  1060.828
  16  1121.718
  17  1013.759
  18  982.9706
  19  1116.769
  20  1093.497
  21  1067.94
  22  947.5512
  23  896.6218
  24  983.1484
  25  1124.386
  26  1117.646
  27  1085.344
  28  1005.777
  29  1084.262
  30  1066.906
  31  1013.302
  32  953.9039
  33  1055.838
  34  1048.814
  35  1139.072
  36  1167.75
  37  1187.522
  38  986.925
  39  1062.553
  40  1031.779
  41  907.9278
  42  913.515
  43  979.8591
  44  1017.121
  45  1053.621
  46  1177.806
  47  1150.299
  48  978.8364
  49  1110.964
  50  978.7028
  51  1073.982
  52  1042.778
  53  1027.274
  54  947.8382
  55  937.068
  56  994.0992
  57  1075.349
  58  1044.227
  59  1024.536
  60  1040.646
  61  1000.068
  62  958.4313
  63  864.1624
  64  910.7727
  65  1042.198
  66  1014.601
  67  1036.652
  68  922.6512
  69  862.4468
  70  999.7739
  71  961.8088
  72  968.0637
  73  991.0214
  74  932.812
  75  972.8934
  76  967.802
  77  1019.805
  78  938.1771
  79  857.4033
  80  817.2057
  81  963.0547
  82  887.6532
  83  941.0637
  84  948.8787
  85  1001.607
  86  1080.569
  87  924.246
  88  932.7505
  89  810.0433
  90  819.4715
  91  804.3863
  92  927.1276
  93  898.617
  94  883.7806
  95  946.7582
  96  1003.002
  97  872.4193
  98  901.2294
  99  939.3447
 100  923.6794
 101  965.26
 102  994.1579
 103  975.3625
 104  910.9991
 105  903.6122
 106  920.0014
 107  1048.814
 108  966.3342
 109  1065.172
 110  1020.498
 111  898.6949
 112  852.1385
 113  929.8488
 114  893.433
 115  951.7868
 116  993.5307
 117  1115.335
 118  1123.559
 119  1032.035
 120  942.3596
 121  903.6176
 122  925.8918
 123  978.2303
 124  1124.369
 125  1113.283
 126  1043.634
 127  997.146
 128  1091.967
 129  980.4905
 130  1068.033
 131  1049.546
 132  1085.235
 133  1051.167
 134  978.4329
 135  943.6783
 136  1043.188
 137  1096.293
 138  1024.981
 139  944.9761
 140  966.7044
 141  1026.187
 142  865.3108
 143  865.4323
 144  1052.605
 145  1015.04
 146  1109.076
 147  1164.826
 148  1042.904
 149  1060.728
 150  1095.786
 151  1084.017
 152  1064.544
 153  1002.205
 154  917.6662
 155  956.7807
 156  1042.353
 157  1034.049
 158  916.2253
 159  1030.261
 160  1042.628
 161  950.2808
 162  943.4512
 163  1034.152
 164  972.9258
 165  924.8672
 166  1093.259
 167  1213.847
 168  1146.637
 169  1134.071
 170  1114.882
 171  1060.131
 172  1092.493
 173  1171.39
 174  1094.924
 175  968.749
 176  1032.926
 177  1141.443
 178  1014.614
 179  1030.681
 180  1061.753
 181  1068.744
 182  1002.73
 183  1049.615
 184  1085.174
 185  964.1906
 186  972.0098
 187  1108.813
 188  1169.808
 189  1074.42
 190  979.5418
 191  936.9763
 192  1016.467
 193  1066.42
 194  1086.445
 195  995.2042
 196  1029.686
 197  1081.556
 198  1056.607
 199  980.6267
 200  966.9871
 201  943.0314
 202  1029.353
 203  1048.613
 204  1144.135
 205  1049.153
 206  1069.552
 207  1090.993
 208  1073.859
 209  1056
 210  911.1088
 211  876.3327
 212  913.1906
 213  891.351
 214  1050.592
 215  1056.477
 216  948.5457
 217  1057.234
 218  1208.545
 219  1144.503
 220  1234.538
 221  1109.28
 222  969.0422
 223  852.6228
 224  939.1845
 225  1015.524
 226  1000.929
 227  922.6414
 228  986.3487
 229  982.2925
 230  1040.729
 231  1108.077
 232  1024.9
 233  968.8254
 234  964.5348
 235  986.0057
 236  965.097
 237  971.7172
 238  1041.669
 239  982.5134
 240  955.9218
 241  1001.554
 242  1040.69
 243  1007.77
 244  956.0804
 245  969.3325
 246  1122.207
 247  1079.181
 248  1012.754
 249  1073.883
 250  1060.478
 251  1067.318
 252  1011.706
 253  1007.049
 254  1049.114
 255  1107.649
 256  1013.85
 257  1072.202
 258  1121.152
 259  1035.692
 260  955.5518
 261  919.0477
 262  1000
 263  972.9456
 264  1062.619
 265  1115.517
 266  1093.643
 267  1113.927
 268  1115.814
 269  1083.708
 270  1071.835
 271  1080.219
 272  1022.744
 273  1035.058
 274  976.65
 275  957.5185
 276  935.9858
 277  1026.467
 278  1124.145
 279  1114.071
 280  1052.567
 281  981.5974
 282  922.4891
 283  1077.462
 284  1169.809
 285  1144.543
 286  1140.978
 287  1126.489
 288  1047.858
 289  1019.054
 290  1004.196
 291  1032.999
 292  949.7579
 293  1035.894
 294  1004.321
 295  1032.834
 296  1134.828
 297  1064.063
 298  1046.832
 299  1075.659
 300  1000.797
 301  999.0647
 302  981.644
 303  1032.839
 304  999.4135
 305  888.9767
 306  947.6716
 307  947.6192
 308  1007.035
 309  1125.157
 310  1016.79
 311  938.5812
 312  923.6219
 313  935.9122
 314  985.7378
 315  1049.856
 316  1086.263
 317  1186.938
 318  1182.048
 319  1035.839
 320  1032.714
 321  948.5801
 322  874.4152
 323  897.7512
 324  926.4131
 325  974.6854
 326  960.3539
 327  1003.034
 328  998.4384
 329  989.2515
 330  930.7394
 331  931.6735
 332  960.9505
 333  1052.306
 334  979.5803
 335  946.1004
 336  918.0544
 337  955.338
 338  1032.057
 339  1001.089
 340  990.7034
 341  1005.633
 342  1015.893
 343  997.6373
 344  1011.858
 345  1098.202
 346  1014.931
 347  923.7338
 348  871.8951
 349  997.0304
 350  1125.083
 351  1034.819
 352  1031.64
 353  950.6668
 354  1002.965
 355  985.6824
 356  923.501
 357  952.3236
 358  1010.236
 359  997.2479
 360  939.181
 361  983.6671
 362  1032.081
 363  963.0769
 364  966.567
 365  1112.633
 366  1062.446
 367  1040.136
 368  1122.941
 369  1000.383
 370  886.5445
 371  996.1825
 372  1006.998
 373  882.7829
 374  1041.89
 375  1006.356
 376  878.8823
 377  885.0518
 378  1045.038
 379  1022.232
 380  887.0045
 381  1007.36
 382  1099.624
 383  1072.102
 384  974.7305
 385  998.4919
 386  1104.068
 387  1130.442
 388  1000.798
 389  988.7065
 390  1030.468
 391  1018.064
 392  995.5023
 393  948.5289
 394  948.5256
 395  982.4776
 396  943.4055
 397  935.3715
 398  951.274
 399  1005.808
 400  1102.454
 401  1117.603
 402  1078.138
 403  940.9277
 404  904.8809
 405  1027.506
 406  1048.975
 407  905.7482
 408  974.2219
 409  1063.797
 410  1026.101
 411  1094.106
 412  1022.696
 413  955.6459
 414  1015.351
 415  1105.233
 416  1196.546
 417  1140.539
 418  1033.671
 419  999.5432
 420  1048.583
 421  1061.963
 422  985.188
 423  1102.608
 424  1018.895
 425  1115.376
 426  1081.607
 427  1177.001
 428  1131.377
 429  1146.695
 430  1187.107
 431  1138.691
 432  1238.336
 433  1479.656
 434  1623.729
 435  1604.431
 436  1583.731
 437  1462.359
 438  1350.87
 439  1180.347
 440  1083.625
 441  1079.335
 442  970.5449
 443  981.7734
 444  1049.61
 445  1104.791
 446  1073.893
 447  944.9361
 448  1022.427
 449  981.431
 450  958.2579
 451  928.7954
 452  1005.553
 453  1044.641
 454  1021.052
 455  955.2593
 456  929.3565
 457  939.3405
 458  1019.035
 459  1097.237
 460  1052.615
 461  967.8885
 462  1035.402
 463  1063.38
 464  1009.988
 465  939.0121
 466  1009.367
 467  1116.378
 468  1042.181
 469  926.9667
 470  916.7773
 471  1027.461
 472  1013.874
 473  1035.463
 474  1008.383
 475  952.3398
 476  889.1968
 477  890.2777
 478  1085.567
 479  1042.652
 480  991.9034
 481  979.2515
 482  1106.171
 483  1083.254
 484  999.3986
 485  1010.482
 486  1005.298
 487  949.3917
 488  1032.822
 489  1183.061
 490  1035.173
 491  991.7653
 492  957.782
 493  931.2771
 494  982.8434
 495  1029.782
 496  1015.621
 497  1035.917
 498  933.1487
 499  981.0227
 500  989.819
 501  969.308
 502  979.2714
 503  955.911
 504  952.762
 505  963.0944
 506  1025.331
 507  1069.592
 508  928.1545
 509  896.8024
 510  1088.002
 511  1167.31
