# Input file       =  1211858286.131636_cleaned.dat
# Candidate        =  PSR_0332+5434
# Telescope        =  AR
# Epoch_topo       =  58270.137790875415
# Epoch_bary       =  N/A
# T_sample         =  0.002
# Data Folded      =  7143424
# Data Avg         =  0.372698335860291
# Data StdDev      =  6.18763390096234 
# Profile Bins     =  1024
# Profile Avg      =  2599.92489605195 
# Profile StdDev   =  516.806355927782 
# Reduced chi-sqr  =  0.704
# Prob(Noise)      <  1   (~0.0 sigma)
# P_topo (ms)      =  714.516796317294  +/- 4.51e-05
# P'_topo (s/s)    =  -0                +/- 2.45e-11
# P''_topo (s/s^2) =  0                 +/- 1.11e-14
# P_bary (ms)      =  N/A
# P'_bary (s/s)    =  N/A
# P''_bary (s/s^2) =  N/A
# P_orb (s)        =  N/A
# asin(i)/c (s)    =  N/A
# eccentricity     =  N/A
# w (rad)          =  N/A
# T_peri           =  N/A
######################################################
   0  2589.363
   1  2564.803
   2  2647.743
   3  2592.212
   4  2511.902
   5  2553.623
   6  2850.489
   7  2941.546
   8  2879.67
   9  3013.543
  10  3115.065
  11  3040.447
  12  2777.021
  13  2554.129
  14  2626.566
  15  2672.28
  16  2752.836
  17  2820
  18  2645.667
  19  2609.602
  20  2619.326
  21  2762.739
  22  2701.976
  23  2562.779
  24  2621.957
  25  2620.606
  26  2728.226
  27  2576.674
  28  2483.887
  29  2312.347
  30  2295.242
  31  2427.7
  32  2601.761
  33  2661.502
  34  2639.685
  35  2551.576
  36  2645.845
  37  2659.776
  38  2530.655
  39  2647.11
  40  2923.528
  41  3147.417
  42  3096.023
  43  2897.256
  44  2905.497
  45  2839.08
  46  2777.862
  47  2610.569
  48  2611.067
  49  2583.565
  50  2519.534
  51  2557.512
  52  2547.773
  53  2355.965
  54  2174.658
  55  2363.13
  56  2521.562
  57  2480.266
  58  2507.967
  59  2936.823
  60  2933.362
  61  2717.475
  62  2482.146
  63  2590.578
  64  2475.781
  65  2348.08
  66  2455.359
  67  2493.166
  68  2334.312
  69  2455.872
  70  2615.077
  71  2655.899
  72  2447.881
  73  2629.52
  74  2884.21
  75  2951.474
  76  2910.94
  77  2828.708
  78  2642.601
  79  2505.365
  80  2513.005
  81  2732.235
  82  2780.003
  83  2763.671
  84  2695.258
  85  2698.772
  86  2391.802
  87  2061.72
  88  2022.811
  89  2336.314
  90  2686.018
  91  2783.639
  92  2762.431
  93  2522.931
  94  2320.461
  95  2181.635
  96  2342.006
  97  2577.244
  98  2648.305
  99  2680.793
 100  2832.928
 101  2721.939
 102  2616.378
 103  2503.43
 104  2752.917
 105  2794.389
 106  2829.339
 107  2833.832
 108  2806.49
 109  2922.201
 110  2922.976
 111  2785.257
 112  2720.658
 113  2801.129
 114  2950.477
 115  2812.845
 116  2686.148
 117  2597.53
 118  2605.857
 119  2602.256
 120  2595.091
 121  2388.199
 122  2392.62
 123  2675.391
 124  3001.598
 125  2998.397
 126  2733.941
 127  2572.94
 128  2447.435
 129  2287.307
 130  2377.68
 131  2433.804
 132  2589.07
 133  2511.396
 134  2526.902
 135  2421.924
 136  2287.046
 137  2246.682
 138  2487.293
 139  2811.456
 140  2986.383
 141  3052.076
 142  3084.456
 143  2961.527
 144  2838.767
 145  2721.146
 146  2698.072
 147  2595.965
 148  2562.241
 149  2475.028
 150  2450.389
 151  2180.544
 152  2313.922
 153  2394.715
 154  2636.835
 155  2619.941
 156  2722.003
 157  2837.449
 158  2841.583
 159  2688.775
 160  2404.239
 161  2307.503
 162  2323.831
 163  2386.662
 164  2498.351
 165  2672.214
 166  2766.944
 167  2579.613
 168  2324.725
 169  2307.756
 170  2522.323
 171  2585.308
 172  2808.047
 173  3075.555
 174  3206.018
 175  2935.958
 176  2771.848
 177  2550.736
 178  2491.013
 179  2333.19
 180  2480.798
 181  2367.051
 182  2321.602
 183  2279.322
 184  2403.65
 185  2348.367
 186  2177.148
 187  2242.452
 188  2545.128
 189  2644.325
 190  2438.854
 191  2519.329
 192  2661.702
 193  2749.128
 194  2461.215
 195  2394.604
 196  2443.51
 197  2485.558
 198  2522.776
 199  2651.079
 200  2536.938
 201  2328.219
 202  2236.341
 203  2380.314
 204  2534.895
 205  2444.537
 206  2625.042
 207  2724.917
 208  2699.166
 209  2511.463
 210  2429.482
 211  2539.773
 212  2599.613
 213  2694.35
 214  2782.873
 215  2729.449
 216  2594.665
 217  2607.125
 218  2623.755
 219  2308.512
 220  2048.107
 221  2119.782
 222  2459.762
 223  2499.065
 224  2520.972
 225  2585.461
 226  2568.522
 227  2310.805
 228  2173.811
 229  2250.902
 230  2414.544
 231  2411.349
 232  2526.798
 233  2711.29
 234  2755.537
 235  2594.768
 236  2526.933
 237  2704.504
 238  2887.904
 239  2859.263
 240  2853.696
 241  2789.112
 242  2780.502
 243  2593.788
 244  2540.074
 245  2535.919
 246  2532.52
 247  2555.54
 248  2607.835
 249  2511.738
 250  2327.151
 251  2220.963
 252  2254.667
 253  2219.526
 254  2264.421
 255  2441.559
 256  2704.197
 257  2894.126
 258  2922.056
 259  2624.561
 260  2431.194
 261  2282.897
 262  2388.002
 263  2473.95
 264  2481.132
 265  2500.556
 266  2369.804
 267  2663.636
 268  2576.448
 269  2481.772
 270  2442.67
 271  2806.985
 272  3202.315
 273  3113.578
 274  3050.945
 275  2975.232
 276  2954.361
 277  2719.726
 278  2648.006
 279  2650.156
 280  2813.069
 281  2739.175
 282  2751.476
 283  2503.231
 284  2190.63
 285  2240.453
 286  2418.642
 287  2673.16
 288  2675.035
 289  2859.739
 290  2943.091
 291  2894.606
 292  2574.408
 293  2331.969
 294  2271.049
 295  2409.606
 296  2780.481
 297  3014.589
 298  2853.356
 299  2623.684
 300  2435.795
 301  2495.01
 302  2508.228
 303  2623.316
 304  2756.548
 305  2840.727
 306  3016.142
 307  3122.919
 308  3027.362
 309  2665.555
 310  2472.149
 311  2575.853
 312  2810.445
 313  2822.298
 314  2720.524
 315  2657.864
 316  2563.112
 317  2631.489
 318  2615.609
 319  2528.18
 320  2478.363
 321  2689.999
 322  2857.799
 323  2792.902
 324  2658.188
 325  2685.451
 326  2694.11
 327  2520.977
 328  2476.609
 329  2582.115
 330  2636.958
 331  2608.143
 332  2620.088
 333  2580.367
 334  2422.925
 335  2388.455
 336  2492.175
 337  2651.188
 338  2673.249
 339  2985.861
 340  3148.547
 341  3128.97
 342  2794.557
 343  2673
 344  2718.859
 345  2742.256
 346  2768.298
 347  2796.324
 348  2630.938
 349  2365.223
 350  2306.231
 351  2591.403
 352  2526.295
 353  2237.309
 354  2249.747
 355  2532.146
 356  2628.625
 357  2440.711
 358  2636.647
 359  2695.71
 360  2717.478
 361  2611.103
 362  2752.854
 363  2662.367
 364  2565.914
 365  2495.728
 366  2582.442
 367  2490.481
 368  2481.392
 369  2635.843
 370  2836.862
 371  2792.367
 372  2731.688
 373  2755.516
 374  2700.583
 375  2649.254
 376  2561.053
 377  2782.219
 378  2743.861
 379  2765.571
 380  2728.939
 381  2813.941
 382  2733.888
 383  2491.828
 384  2495.448
 385  2641.067
 386  2641.942
 387  2505.437
 388  2412.135
 389  2411.733
 390  2618.666
 391  2723.412
 392  2662.23
 393  2442.93
 394  2290.653
 395  2423.483
 396  2457.83
 397  2486.015
 398  2361.803
 399  2363.083
 400  2600.408
 401  2665.582
 402  2716.406
 403  2649.286
 404  2878.735
 405  3023.67
 406  2976.384
 407  2758.553
 408  2626.096
 409  2495.395
 410  2410.819
 411  2270.503
 412  2394.316
 413  2370.325
 414  2342.416
 415  2392.616
 416  2349.479
 417  2124.254
 418  2023.201
 419  2354.087
 420  2700.281
 421  2734.874
 422  2624.378
 423  2581.7
 424  2385.495
 425  2261.302
 426  2254.347
 427  2334.723
 428  2166.685
 429  2197.486
 430  2397.335
 431  2391.206
 432  2196.734
 433  2299.876
 434  2604.345
 435  2644.978
 436  2686.418
 437  2750.901
 438  3048.626
 439  2916.712
 440  2805.495
 441  2637.134
 442  2618.551
 443  2646.181
 444  2653.618
 445  2739.839
 446  2647.372
 447  2441.538
 448  2426.19
 449  2413.834
 450  2382.36
 451  2219.193
 452  2421.61
 453  2620.656
 454  2657.652
 455  2593.476
 456  2643.021
 457  2535.771
 458  2410.591
 459  2256.046
 460  2235.503
 461  2112.35
 462  2043.845
 463  2156.695
 464  2338
 465  2430.256
 466  2426.617
 467  2332.345
 468  2387.091
 469  2502.898
 470  2728.886
 471  2828.241
 472  2917.993
 473  2975.932
 474  2951.062
 475  2700.365
 476  2514.409
 477  2472.349
 478  2469.353
 479  2462.6
 480  2343.133
 481  2284.341
 482  2117.3
 483  2056.165
 484  2232.441
 485  2376.503
 486  2486.91
 487  2442.457
 488  2680.39
 489  2541.118
 490  2393.883
 491  2353.234
 492  2405.784
 493  2513.787
 494  2520.993
 495  2592.351
 496  2609.464
 497  2478.953
 498  2439.894
 499  2493.75
 500  2374.437
 501  2208.765
 502  2282.333
 503  2728.25
 504  2977.697
 505  2863.638
 506  2825.853
 507  2720.327
 508  2668.688
 509  2620.384
 510  2805.193
 511  2916.528
 512  2833.732
 513  2819.814
 514  2765.37
 515  2567.392
 516  2377.614
 517  2465.246
 518  2588.961
 519  2601.513
 520  2539.249
 521  2629.125
 522  2616.17
 523  2544.79
 524  2441.405
 525  2388.318
 526  2443.725
 527  2531.895
 528  2587.819
 529  2632.394
 530  2634.553
 531  2646.178
 532  2501.105
 533  2708.496
 534  2769.146
 535  2797.16
 536  2706.831
 537  2785.533
 538  2961.255
 539  2918.738
 540  2892.258
 541  2749.257
 542  2727.04
 543  2616.166
 544  2630.249
 545  2557.337
 546  2497.747
 547  2549.662
 548  2521.996
 549  2405.862
 550  2015.584
 551  2126.67
 552  2455.603
 553  2914.387
 554  2808.89
 555  2712.769
 556  2684.308
 557  2832.925
 558  2755.589
 559  2616.359
 560  2459.986
 561  2372.229
 562  2434.837
 563  2621.283
 564  2684.683
 565  2548.786
 566  2517.529
 567  2759.615
 568  2870.92
 569  2901.006
 570  2939.875
 571  3021.986
 572  2940.504
 573  2792.983
 574  2855.411
 575  2966.932
 576  3030.975
 577  2922.856
 578  2901.7
 579  2658.162
 580  2358.062
 581  2216.103
 582  2372.781
 583  2481.665
 584  2475.016
 585  2553.589
 586  2806.185
 587  2865.981
 588  2973.82
 589  2902.872
 590  3003.413
 591  2748.635
 592  2834.32
 593  2949.149
 594  3204.575
 595  3221.214
 596  3391.004
 597  3530.772
 598  3598.503
 599  3550.47
 600  3558.784
 601  3682.948
 602  3675.14
 603  3506.736
 604  3163.346
 605  2808.198
 606  2755.173
 607  2750.305
 608  2730.812
 609  2619.361
 610  2630.553
 611  2753.708
 612  2877.946
 613  2732.701
 614  2554.266
 615  2384.246
 616  2508.855
 617  2579.148
 618  2639.334
 619  2680.904
 620  2764.385
 621  2976.795
 622  2811.094
 623  2594.603
 624  2372.476
 625  2390.244
 626  2499.022
 627  2664.976
 628  2650.378
 629  2617.048
 630  2571.81
 631  2578.198
 632  2571.924
 633  2580.197
 634  2769.518
 635  2915.174
 636  3284.484
 637  3259.196
 638  2974.426
 639  2702.033
 640  2663.225
 641  2800.053
 642  2727.153
 643  2663.82
 644  2630.024
 645  2538.645
 646  2487.187
 647  2502.187
 648  2406.277
 649  2492.9
 650  2720.926
 651  3021.058
 652  2814.135
 653  2684.667
 654  2629.305
 655  2752.794
 656  2571.954
 657  2484.478
 658  2472.01
 659  2564.715
 660  2518.184
 661  2643.022
 662  2586.813
 663  2623.992
 664  2579.098
 665  2734.541
 666  2853.835
 667  2787.127
 668  2728.816
 669  2780.322
 670  2889.561
 671  2985.261
 672  2887.077
 673  2598.204
 674  2321.28
 675  2283.104
 676  2445.802
 677  2593.97
 678  2553.426
 679  2569.325
 680  2566.813
 681  2610.006
 682  2565.691
 683  2480.975
 684  2413.383
 685  2594.675
 686  2623.351
 687  2495.762
 688  2364.646
 689  2463.48
 690  2583.866
 691  2459.823
 692  2346.814
 693  2387.768
 694  2378.164
 695  2365.614
 696  2296.948
 697  2322.202
 698  2193.862
 699  2281.026
 700  2612.819
 701  2788.213
 702  2704.134
 703  2777.525
 704  2847.446
 705  2924.534
 706  2714.935
 707  2694.552
 708  2667.032
 709  2774.958
 710  2581.465
 711  2381.69
 712  2174.947
 713  1971.679
 714  2097.615
 715  2292.508
 716  2219.705
 717  2064.442
 718  2020.555
 719  2446.012
 720  2551.389
 721  2570.344
 722  2489.079
 723  2516.046
 724  2412.003
 725  2424.356
 726  2425.607
 727  2591.146
 728  2372.42
 729  2422.019
 730  2296.205
 731  2362.955
 732  2350.389
 733  2499.95
 734  2799.2
 735  2799.298
 736  2897.341
 737  2674.858
 738  2723.446
 739  2523.971
 740  2479.926
 741  2477.63
 742  2660.305
 743  2684.505
 744  2747.975
 745  2632.372
 746  2396.805
 747  2075.747
 748  1921.648
 749  2092.019
 750  2338.28
 751  2667.844
 752  2756.413
 753  2553.076
 754  2405.07
 755  2161.469
 756  2048.5
 757  2080.529
 758  2046.534
 759  2242.377
 760  2417.616
 761  2606.632
 762  2522.947
 763  2501.843
 764  2757.105
 765  2872.947
 766  2701.042
 767  2572.163
 768  2743.868
 769  2818.436
 770  2747.231
 771  2468.024
 772  2512.11
 773  2540.338
 774  2724.1
 775  2805.866
 776  2824.092
 777  2680.63
 778  2430.292
 779  2456.881
 780  2340.578
 781  2086.016
 782  2146.966
 783  2599.227
 784  2916.166
 785  2720.712
 786  2546.905
 787  2522.872
 788  2485.622
 789  2404.771
 790  2541.932
 791  2568.025
 792  2529.155
 793  2530.552
 794  2696.712
 795  2695.993
 796  2571.209
 797  2546.226
 798  2632.6
 799  2746.433
 800  2701.242
 801  2680.416
 802  2711.719
 803  2717.392
 804  2658.433
 805  2608.187
 806  2649.371
 807  2610.027
 808  2643.961
 809  2677.191
 810  2689.781
 811  2615.64
 812  2563.208
 813  2618.93
 814  2538.751
 815  2564.502
 816  2593.793
 817  2760.75
 818  2823.471
 819  2656.724
 820  2524.602
 821  2215.34
 822  2133.173
 823  2065.531
 824  2163.406
 825  2340.184
 826  2507.191
 827  2612.595
 828  2538.14
 829  2609.141
 830  2703.478
 831  2596.055
 832  2669.771
 833  2854.873
 834  3218.239
 835  3249.181
 836  3049.65
 837  2906.202
 838  2731.96
 839  2560.735
 840  2505.05
 841  2471.747
 842  2551.873
 843  2423.669
 844  2490.006
 845  2334.18
 846  2241.087
 847  2329.439
 848  2611.139
 849  2711.855
 850  2540.598
 851  2492.341
 852  2783.688
 853  2812.813
 854  2616.039
 855  2473.713
 856  2590.992
 857  2578.801
 858  2498.646
 859  2371.981
 860  2346.164
 861  2151.458
 862  2219.406
 863  2374.59
 864  2550.203
 865  2637.129
 866  2884.875
 867  3165.677
 868  3016.027
 869  2739.482
 870  2511.487
 871  2649.306
 872  2523.401
 873  2662.396
 874  2688.878
 875  2732.618
 876  2625.586
 877  2563.218
 878  2648.023
 879  2484.045
 880  2297.663
 881  2357.595
 882  2444.604
 883  2435.577
 884  2274.148
 885  2296.93
 886  2316.18
 887  2356.113
 888  2232.899
 889  2223.845
 890  2325.784
 891  2424.957
 892  2496.385
 893  2468.099
 894  2415.207
 895  2174.425
 896  2205.657
 897  2384.359
 898  2597.017
 899  2651.848
 900  2793.575
 901  2916.6
 902  2884.244
 903  2714.977
 904  2418.504
 905  2341.393
 906  2449.895
 907  2510.98
 908  2648.739
 909  2554.561
 910  2485.183
 911  2177.571
 912  2293.344
 913  2229.597
 914  2223.954
 915  2179.394
 916  2562.313
 917  2707.856
 918  2689.87
 919  2529.067
 920  2615.953
 921  2540.56
 922  2425.224
 923  2299.716
 924  2287.576
 925  2223.632
 926  2280.263
 927  2389.711
 928  2437.054
 929  2302.932
 930  2407.431
 931  2731.024
 932  2959.044
 933  2835.828
 934  2659.39
 935  2750.952
 936  2863.894
 937  2737.843
 938  2736.574
 939  2774.621
 940  2898.083
 941  2731.388
 942  2746.027
 943  2681.723
 944  2435.167
 945  2211.343
 946  2116.263
 947  1995.906
 948  2010.52
 949  2190.06
 950  2658.217
 951  2711.925
 952  2663.1
 953  2488.523
 954  2362.297
 955  2447.123
 956  2653.971
 957  2921.961
 958  2920.693
 959  2815.251
 960  2876.829
 961  2889.153
 962  2782.853
 963  2586.157
 964  2474.363
 965  2504.35
 966  2671.026
 967  2758.822
 968  2780.71
 969  2617.697
 970  2631.773
 971  2674.279
 972  2829.281
 973  2783.556
 974  2813.978
 975  2855.296
 976  2663.307
 977  2503.413
 978  2392.657
 979  2483.759
 980  2495.102
 981  2636.801
 982  2862.732
 983  2895.457
 984  2701.682
 985  2693.687
 986  2620.368
 987  2483.787
 988  2404.995
 989  2479.8
 990  2694.162
 991  2715.676
 992  2696.112
 993  2689.815
 994  2582.493
 995  2545.019
 996  2543.718
 997  2584.642
 998  2717.509
 999  2887.663
1000  3143.535
1001  3096.098
1002  2952.06
1003  2913.761
1004  2976.276
1005  2786.564
1006  2562.341
1007  2494.914
1008  2634.526
1009  2616.562
1010  2592.577
1011  2594.883
1012  2587.604
1013  2393.488
1014  2548.627
1015  2766.245
1016  2712.919
1017  2605.629
1018  2870.715
1019  3028.989
1020  2829.707
1021  2504.697
1022  2584.235
1023  2671.485
