# Input file       =  1211772099.121053_cleaned.dat
# Candidate        =  PSR_0332+5434
# Telescope        =  AR
# Epoch_topo       =  58269.140256030703
# Epoch_bary       =  N/A
# T_sample         =  0.002
# Data Folded      =  7208960
# Data Avg         =  0.0389820932594097
# Data StdDev      =  1.00005972990171 
# Profile Bins     =  512
# Profile Avg      =  548.914153168003 
# Profile StdDev   =  118.666263294437 
# Reduced chi-sqr  =  1.727
# Prob(Noise)      <  3.14e-22   (~9.6 sigma)
# P_topo (ms)      =  714.5177675014    +/- 0.000159
# P'_topo (s/s)    =  -0                +/- 8.55e-11
# P''_topo (s/s^2) =  0                 +/- 3.84e-14
# P_bary (ms)      =  N/A
# P'_bary (s/s)    =  N/A
# P''_bary (s/s^2) =  N/A
# P_orb (s)        =  N/A
# asin(i)/c (s)    =  N/A
# eccentricity     =  N/A
# w (rad)          =  N/A
# T_peri           =  N/A
######################################################
   0  1353.936
   1  1162.809
   2  936.8419
   3  646.244
   4  540.9069
   5  601.2725
   6  650.5663
   7  669.0079
   8  592.7883
   9  639.0303
  10  597.0737
  11  605.7671
  12  570.4856
  13  552.1146
  14  543.8883
  15  621.907
  16  590.3855
  17  551.1467
  18  584.8252
  19  520.5118
  20  483.8169
  21  581.6644
  22  617.6312
  23  552.9883
  24  547.0945
  25  654.5863
  26  667.1055
  27  555.9455
  28  492.0686
  29  567.022
  30  541.1659
  31  489.6834
  32  493.9948
  33  536.5605
  34  633.7241
  35  556.9052
  36  508.0474
  37  628.8052
  38  594.7698
  39  608.2962
  40  502.3802
  41  630.2003
  42  633.8927
  43  546.6898
  44  547.5288
  45  544.0803
  46  501.578
  47  578.0747
  48  498.3205
  49  483.7489
  50  509.5837
  51  537.313
  52  469.8681
  53  418.9933
  54  547.8821
  55  562.1779
  56  559.3861
  57  488.074
  58  495.2697
  59  701.5895
  60  750.6633
  61  638.0309
  62  627.9183
  63  490.4816
  64  505.499
  65  639.6072
  66  614.4738
  67  609.2072
  68  635.1865
  69  536.2093
  70  449.7803
  71  419.8745
  72  544.1641
  73  520.2238
  74  462.8199
  75  561.2428
  76  660.7966
  77  467.526
  78  513.7449
  79  588.8785
  80  559.6956
  81  521.2084
  82  335.1342
  83  518.1387
  84  505.2104
  85  645.3035
  86  494.0159
  87  314.6975
  88  397.9236
  89  477.0133
  90  556.3363
  91  412.1545
  92  435.1133
  93  511.1718
  94  472.5975
  95  449.5631
  96  490.8672
  97  447.5641
  98  493.4999
  99  514.7021
 100  579.4093
 101  620.6777
 102  683.536
 103  440.6886
 104  405.977
 105  444.915
 106  394.2634
 107  372.7562
 108  388.8323
 109  382.9517
 110  432.7418
 111  466.9637
 112  345.258
 113  314.4997
 114  418.7013
 115  453.2009
 116  486.2665
 117  539.9188
 118  430.1353
 119  408.655
 120  474.0553
 121  468.0447
 122  398.6777
 123  556.6921
 124  545.267
 125  426.4947
 126  519.4578
 127  527.4649
 128  579.7094
 129  366.0457
 130  470.3899
 131  528.1682
 132  567.5859
 133  565.799
 134  460.93
 135  455.5373
 136  576.4856
 137  591.9899
 138  574.7789
 139  554.3165
 140  491.357
 141  454.3696
 142  431.5494
 143  517.3476
 144  560.9661
 145  599.9884
 146  488.5976
 147  511.1071
 148  559.0042
 149  501.1718
 150  579.9797
 151  569.8665
 152  490.8831
 153  505.5294
 154  564.2827
 155  534.4159
 156  449.7295
 157  458.4497
 158  426.3876
 159  475.7758
 160  476.0429
 161  468.8876
 162  610.1348
 163  638.2688
 164  559.1799
 165  398.0841
 166  494.9809
 167  537.1527
 168  577.0806
 169  605.4684
 170  619.9952
 171  607.6564
 172  662.2405
 173  520.1028
 174  463.1881
 175  375.4026
 176  532.5527
 177  665.1713
 178  519.0594
 179  444.3755
 180  330.3464
 181  526.5838
 182  591.1428
 183  534.0294
 184  570.1643
 185  541.5679
 186  557.6888
 187  473.4012
 188  470.6784
 189  531.6674
 190  584.0342
 191  535.0355
 192  536.0773
 193  501.1368
 194  408.0997
 195  586.676
 196  469.5616
 197  565.7504
 198  566.9443
 199  538.6533
 200  517.9128
 201  376.0413
 202  326.3188
 203  446.9374
 204  537.8497
 205  458.7614
 206  413.3074
 207  654.8049
 208  558.2892
 209  396.3641
 210  435.3911
 211  513.7084
 212  427.8835
 213  422.91
 214  338.3286
 215  427.5436
 216  409.1956
 217  531.7607
 218  605.6295
 219  481.2976
 220  472.6741
 221  394.9183
 222  356.9805
 223  423.1204
 224  530.2618
 225  626.6313
 226  529.0997
 227  502.6909
 228  469.3682
 229  540.6889
 230  553.9872
 231  449.8719
 232  469.809
 233  468.9516
 234  444.6713
 235  409.1107
 236  367.7921
 237  381.7118
 238  464.5804
 239  356.4538
 240  501.0673
 241  533.1255
 242  569.4065
 243  452.7368
 244  469.5778
 245  364.8376
 246  410.7925
 247  539.3566
 248  505.0683
 249  471.1045
 250  509.4136
 251  519.1005
 252  422.0748
 253  445.7838
 254  427.1495
 255  448.2038
 256  587.7436
 257  601.5368
 258  535.6466
 259  552.2458
 260  495.712
 261  530.9845
 262  499.6896
 263  444.8867
 264  427.3062
 265  432.3203
 266  596.3212
 267  620.3456
 268  408.9955
 269  271.7478
 270  397.8773
 271  531.4067
 272  614.6313
 273  635.4721
 274  622.0311
 275  650.4167
 276  486.64
 277  424.7042
 278  395.0334
 279  548.5975
 280  680.1794
 281  586.3936
 282  589.1355
 283  651.3489
 284  522.5479
 285  464.4214
 286  409.6124
 287  620.7258
 288  737.9481
 289  596.5208
 290  578.4766
 291  566.2834
 292  523.3377
 293  492.7066
 294  578.9622
 295  567.0245
 296  588.9065
 297  604.9807
 298  493.1034
 299  575.0709
 300  658.5705
 301  618.83
 302  560.5072
 303  534.7878
 304  610.2347
 305  616.7065
 306  818.2834
 307  696.6808
 308  649.3202
 309  615.4822
 310  668.7477
 311  457.25
 312  457.4151
 313  514.8941
 314  581.9379
 315  628.673
 316  544.3589
 317  479.3869
 318  629.4299
 319  651.5037
 320  691.9357
 321  703.4928
 322  674.4566
 323  535.7441
 324  546.1747
 325  647.8817
 326  558.9811
 327  480.3236
 328  525.7656
 329  555.0545
 330  573.6553
 331  599.1707
 332  576.3087
 333  621.4991
 334  592.7712
 335  628.4228
 336  576.0245
 337  601.0668
 338  614.913
 339  671.2469
 340  576.3435
 341  506.9493
 342  534.9767
 343  510.6922
 344  592.3813
 345  587.1785
 346  490.0412
 347  398.4136
 348  474.9411
 349  518.0944
 350  514.1218
 351  404.7785
 352  566.2996
 353  490.6853
 354  465.6058
 355  544.4103
 356  597.7175
 357  618.7464
 358  663.2111
 359  713.5801
 360  641.3083
 361  646.2665
 362  637.1718
 363  679.3761
 364  525.1093
 365  432.7411
 366  492.4325
 367  437.0324
 368  495.3512
 369  530.5966
 370  563.4172
 371  663.1704
 372  645.9601
 373  675.9373
 374  575.0446
 375  537.5074
 376  664.9601
 377  582.3246
 378  535.7159
 379  467.0618
 380  518.3809
 381  613.2231
 382  683.4636
 383  590.4501
 384  599.774
 385  622.0938
 386  611.6327
 387  447.2406
 388  479.8617
 389  643.6763
 390  522.3919
 391  564.7219
 392  517.9369
 393  429.4259
 394  468.1966
 395  388.9671
 396  397.9414
 397  436.0359
 398  431.9894
 399  479.6193
 400  532.4127
 401  517.8383
 402  548.4967
 403  497.2092
 404  509.3062
 405  496.649
 406  566.5056
 407  573.3965
 408  597.6505
 409  620.5053
 410  469.7495
 411  439.5916
 412  596.0864
 413  636.8383
 414  643.2438
 415  636.5674
 416  702.6939
 417  568.4782
 418  530.3503
 419  543.1211
 420  677.2407
 421  683.1703
 422  671.5104
 423  666.0164
 424  589.8895
 425  606.6151
 426  579.3918
 427  504.6024
 428  493.7024
 429  461.3013
 430  498.4702
 431  538.4949
 432  513.8401
 433  607.0791
 434  648.19
 435  640.3776
 436  535.9609
 437  440.6861
 438  507.0192
 439  557.0012
 440  627.8759
 441  676.7271
 442  605.1984
 443  558.601
 444  471.4744
 445  617.9354
 446  568.2678
 447  675.9919
 448  646.7752
 449  495.4617
 450  400.6895
 451  494.0264
 452  496.735
 453  519.8915
 454  560.9142
 455  583.376
 456  602.4275
 457  650.8872
 458  592.5134
 459  609.9387
 460  739.6342
 461  664.2307
 462  644.7664
 463  601.6624
 464  590.6225
 465  505.5749
 466  468.6925
 467  549.6877
 468  558.5552
 469  554.7229
 470  662.857
 471  647.4565
 472  586.6835
 473  539.916
 474  638.2089
 475  632.2206
 476  544.922
 477  527.6278
 478  555.8615
 479  774.5632
 480  637.1907
 481  578.1138
 482  546.9656
 483  611.5048
 484  638.6086
 485  643.9365
 486  678.1255
 487  701.3625
 488  652.1407
 489  684.6716
 490  672.0147
 491  534.6973
 492  496.9584
 493  470.9706
 494  535.6886
 495  506.9098
 496  614.454
 497  662.1432
 498  637.733
 499  580.6149
 500  428.8069
 501  391.9386
 502  563.5362
 503  537.1588
 504  553.6904
 505  841.7219
 506  967.2324
 507  892.4947
 508  812.4774
 509  963.342
 510  1158.969
 511  1349.976
