# Input file       =  1211098148.107654_cleaned.dat
# Candidate        =  PSR_0332+5434
# Telescope        =  AR
# Epoch_topo       =  58261.339897079328
# Epoch_bary       =  N/A
# T_sample         =  0.002
# Data Folded      =  7340032
# Data Avg         =  0.0670498158374428
# Data StdDev      =  0.999886839218129
# Profile Bins     =  512
# Profile Avg      =  961.201546115977 
# Profile StdDev   =  119.719487292754 
# Reduced chi-sqr  =  0.869
# Prob(Noise)      <  0.985   (~0.0 sigma)
# P_topo (ms)      =  714.52542157341   +/- 0.000534
# P'_topo (s/s)    =  -0                +/- 2.82e-10
# P''_topo (s/s^2) =  0                 +/- 1.24e-13
# P_bary (ms)      =  N/A
# P'_bary (s/s)    =  N/A
# P''_bary (s/s^2) =  N/A
# P_orb (s)        =  N/A
# asin(i)/c (s)    =  N/A
# eccentricity     =  N/A
# w (rad)          =  N/A
# T_peri           =  N/A
######################################################
   0  969.9185
   1  981.7163
   2  1025.503
   3  1074.577
   4  1040.892
   5  995.7051
   6  918.9558
   7  861.7313
   8  945.1879
   9  1038.152
  10  1053.477
  11  1091.748
  12  1088.585
  13  983.6033
  14  1008.958
  15  1049.063
  16  1039.303
  17  1017.202
  18  1072.649
  19  1035.99
  20  1061.683
  21  1021.162
  22  1000.573
  23  1020.064
  24  974.2073
  25  972.3847
  26  1044.618
  27  1123.744
  28  1100.646
  29  985.8568
  30  1071.983
  31  1040.03
  32  1031.754
  33  1081.921
  34  1058.689
  35  966.5959
  36  941.5095
  37  897.4844
  38  922.0314
  39  1022.229
  40  983.5219
  41  972.1155
  42  982.2792
  43  1022.53
  44  955.471
  45  918.7531
  46  1009.156
  47  899.8372
  48  914.7548
  49  944.5837
  50  956.2557
  51  991.2718
  52  967.9539
  53  968.3905
  54  962.2213
  55  916.5697
  56  953.921
  57  1001.464
  58  1051.179
  59  1057.161
  60  996.4648
  61  963.491
  62  939.5239
  63  843.518
  64  938.874
  65  985.4064
  66  913.6219
  67  944.3029
  68  1028.297
  69  1028.506
  70  1042.136
  71  1044.289
  72  921.0997
  73  931.9645
  74  955.5173
  75  1022.857
  76  997.0567
  77  960.0732
  78  963.0226
  79  960.7454
  80  945.6949
  81  1027.511
  82  1035.144
  83  997.6293
  84  1060.418
  85  982.6091
  86  962.0421
  87  955.9002
  88  891.1266
  89  1036.962
  90  1047.497
  91  1046.443
  92  1036.603
  93  990.3628
  94  1035.678
  95  994.624
  96  989.8646
  97  975.1075
  98  885.7463
  99  975.4415
 100  1081.037
 101  987.9582
 102  976.8429
 103  843.5574
 104  770.4582
 105  841.4436
 106  890.3525
 107  945.7083
 108  917.794
 109  915.4846
 110  912.1994
 111  893.8583
 112  901.5335
 113  945.568
 114  997.1076
 115  935.9321
 116  897.8349
 117  956.3156
 118  976.3422
 119  991.326
 120  1031.898
 121  1041.922
 122  1034.969
 123  1030.263
 124  968.2231
 125  943.7595
 126  930.4423
 127  991.9622
 128  1027.138
 129  968.1432
 130  1021.086
 131  984.3781
 132  920.7548
 133  931.0256
 134  918.4669
 135  975.9282
 136  1072.046
 137  961.1141
 138  958.9547
 139  947.9363
 140  1016.884
 141  1037.532
 142  962.5177
 143  954.0571
 144  914.6234
 145  987.5011
 146  975.3217
 147  1049.691
 148  1046.651
 149  1001.312
 150  922.3574
 151  920.4828
 152  938.7465
 153  933.2059
 154  1009.188
 155  972.8967
 156  909.2836
 157  894.9868
 158  892.7543
 159  1001.772
 160  945.2393
 161  846.7951
 162  797.2975
 163  887.2433
 164  888.7643
 165  873.6898
 166  856.334
 167  899.8297
 168  929.3557
 169  879.2515
 170  946.4216
 171  891.0882
 172  857.8857
 173  875.009
 174  928.1194
 175  899.6944
 176  964.9545
 177  944.3547
 178  968.7245
 179  856.8178
 180  802.3121
 181  892.8528
 182  926.3486
 183  890.3666
 184  848.5786
 185  844.4405
 186  889.9442
 187  873.6335
 188  857.3467
 189  938.9778
 190  991.6448
 191  938.5214
 192  890.2783
 193  885.8615
 194  940.6918
 195  973.3206
 196  1003.608
 197  948.3289
 198  901.7176
 199  963.7354
 200  967.5466
 201  982.964
 202  911.4115
 203  883.7725
 204  952.9083
 205  1037.522
 206  1000.1
 207  869.1495
 208  862.2175
 209  783.973
 210  713.3954
 211  924.3395
 212  1010.922
 213  934.994
 214  1021.621
 215  1030.457
 216  983.666
 217  1027.486
 218  861.8456
 219  906.3712
 220  903.4647
 221  1046.886
 222  1052.464
 223  940.246
 224  1033.21
 225  1022.325
 226  959.2905
 227  983.9886
 228  905.4304
 229  940.8851
 230  983.5908
 231  985.9484
 232  988.3942
 233  905.867
 234  921.27
 235  1007.497
 236  935.9481
 237  865.4492
 238  949.9165
 239  1047.332
 240  1005.017
 241  912.0929
 242  1027.726
 243  1106.135
 244  929.5161
 245  916.5687
 246  1055.185
 247  998.3517
 248  892.237
 249  888.6919
 250  977.0879
 251  961.9515
 252  955.3434
 253  893.3445
 254  884.9102
 255  873.3718
 256  799.0165
 257  793.9832
 258  904.7389
 259  834.3326
 260  854.6241
 261  872.4296
 262  972.4889
 263  860.8871
 264  858.8692
 265  917.705
 266  943.9786
 267  976.8179
 268  1110.934
 269  960.8271
 270  824.6064
 271  841.528
 272  902.3513
 273  865.926
 274  858.1532
 275  882.3742
 276  891.5065
 277  819.983
 278  846.2569
 279  756.0185
 280  819.5379
 281  868.3255
 282  843.6322
 283  906.2338
 284  983.7241
 285  961.4048
 286  894.731
 287  935.3757
 288  872.1863
 289  862.6016
 290  883.2698
 291  924.8983
 292  944.2278
 293  985.5043
 294  1013.58
 295  996.6724
 296  925.2656
 297  956.0616
 298  925.7216
 299  923.7941
 300  917.6473
 301  958.9495
 302  1009.733
 303  985.3547
 304  981.5167
 305  1004.141
 306  1018.697
 307  986.7835
 308  1003.373
 309  998.9198
 310  904.3618
 311  977.9161
 312  964.1461
 313  934.4849
 314  918.3905
 315  1015.399
 316  1043.75
 317  996.2955
 318  1016.154
 319  957.3984
 320  999.8279
 321  1025.224
 322  1169.124
 323  1336.318
 324  1329.985
 325  1327.245
 326  1440.724
 327  1401.292
 328  1324.323
 329  1064.419
 330  948.7399
 331  958.7525
 332  866.8341
 333  851.8157
 334  906.58
 335  936.067
 336  1021.268
 337  944.4341
 338  892.9268
 339  946.2195
 340  1015.841
 341  1037.984
 342  994.2863
 343  970.745
 344  804.1628
 345  745.344
 346  876.2701
 347  910.7075
 348  1045.043
 349  1048.213
 350  924.9884
 351  1046.02
 352  946.627
 353  908.3445
 354  958.6157
 355  1010.442
 356  1041.511
 357  1053.54
 358  1047.228
 359  1022.368
 360  931.1341
 361  891.7501
 362  978.5974
 363  1060.251
 364  1042.364
 365  951.4966
 366  914.215
 367  913.2321
 368  935.8168
 369  927.5684
 370  1011.113
 371  1053.802
 372  949.2487
 373  852.8203
 374  867.4399
 375  878.3209
 376  886.2732
 377  913.73
 378  988.9745
 379  1027.407
 380  1054.224
 381  956.4485
 382  909.9433
 383  933.6406
 384  971.1388
 385  931.4531
 386  844.9985
 387  781.3658
 388  840.39
 389  877.3237
 390  973.9655
 391  962.0628
 392  963.9776
 393  981.6295
 394  895.9312
 395  877.3187
 396  940.9259
 397  984.3887
 398  964.514
 399  872.2108
 400  843.917
 401  941.4321
 402  984.2325
 403  949.2539
 404  1011.511
 405  1013.181
 406  930.9619
 407  964.3439
 408  1042.022
 409  990.9371
 410  890.2562
 411  918.5547
 412  1104.781
 413  1097.949
 414  986.2646
 415  925.574
 416  969.8993
 417  968.4435
 418  997.431
 419  978.9983
 420  905.7241
 421  904.2275
 422  998.2897
 423  1020.965
 424  978.7328
 425  963.8084
 426  968.9986
 427  941.5168
 428  963.4999
 429  1051.156
 430  1020.944
 431  1044.142
 432  1054.438
 433  1126.973
 434  1043.287
 435  1013.954
 436  985.673
 437  995.5533
 438  929.8762
 439  937.0411
 440  899.4513
 441  959.6105
 442  1062.208
 443  1047.693
 444  923.6279
 445  860.9088
 446  769.2341
 447  797.0301
 448  938.3655
 449  883.2444
 450  953.7853
 451  1057.644
 452  999.8839
 453  983.8959
 454  1013.167
 455  979.9421
 456  984.3428
 457  1025.901
 458  1086.677
 459  958.7274
 460  867.1301
 461  962.2658
 462  934.2919
 463  943.0013
 464  939.5599
 465  922.9585
 466  896.4249
 467  841.014
 468  890.0665
 469  959.667
 470  1002.596
 471  944.3271
 472  950.6111
 473  910.4552
 474  947.2598
 475  947.0776
 476  924.3246
 477  976.2678
 478  845.0588
 479  915.9729
 480  931.9449
 481  970.6642
 482  899.1962
 483  900.5877
 484  863.1553
 485  944.618
 486  1035.342
 487  1028.708
 488  928.4349
 489  930.5896
 490  947.2246
 491  977.1735
 492  1001.465
 493  997.6105
 494  939.2601
 495  933.61
 496  975.363
 497  981.5105
 498  953.2263
 499  970.4164
 500  924.6364
 501  895.1125
 502  1031.301
 503  1045.726
 504  969.058
 505  912.7659
 506  838.8831
 507  986.7072
 508  1086.181
 509  1030.026
 510  1078.112
 511  1039.405
