# Input file       =  1211356001.104333_cleaned.dat
# Candidate        =  PSR_0332+5434
# Telescope        =  AR
# Epoch_topo       =  58264.324306763112
# Epoch_bary       =  N/A
# T_sample         =  0.002
# Data Folded      =  7340032
# Data Avg         =  0.289559996188992
# Data StdDev      =  5.94386200038994 
# Profile Bins     =  1024
# Profile Avg      =  2075.96607330395 
# Profile StdDev   =  503.231381770198 
# Reduced chi-sqr  =  0.936
# Prob(Noise)      <  0.93   (~0.0 sigma)
# P_topo (ms)      =  714.522485838225  +/- 0.000233
# P'_topo (s/s)    =  -0                +/- 1.23e-10
# P''_topo (s/s^2) =  0                 +/- 5.42e-14
# P_bary (ms)      =  N/A
# P'_bary (s/s)    =  N/A
# P''_bary (s/s^2) =  N/A
# P_orb (s)        =  N/A
# asin(i)/c (s)    =  N/A
# eccentricity     =  N/A
# w (rad)          =  N/A
# T_peri           =  N/A
######################################################
   0  2440.811
   1  2467.505
   2  2444.125
   3  2470.616
   4  2334.291
   5  2339.217
   6  2360.688
   7  2455.306
   8  2413.716
   9  2427.181
  10  2364.387
  11  2316.024
  12  2386.118
  13  2514.794
  14  2698.587
  15  2536.865
  16  2358.705
  17  2384.449
  18  2403.305
  19  2336.194
  20  2068.092
  21  2082.493
  22  2196.594
  23  2332.424
  24  2430.116
  25  2437.313
  26  2319.507
  27  2339.666
  28  2237.175
  29  2279.713
  30  2112.631
  31  2014.032
  32  2197.461
  33  2148.245
  34  2135.04
  35  2259.95
  36  2461.945
  37  2470.798
  38  2281.411
  39  2111.128
  40  2107.656
  41  1966.719
  42  2018.913
  43  2249.072
  44  2529.065
  45  2615.037
  46  2418.349
  47  2275.079
  48  2160.083
  49  2170.131
  50  2201.467
  51  2231.691
  52  2248.194
  53  2087.607
  54  2119.786
  55  2046.312
  56  2155.869
  57  2067.56
  58  2052.057
  59  2102.38
  60  2144.009
  61  2299.783
  62  2292.102
  63  2394.227
  64  2314.796
  65  2296.657
  66  2371.705
  67  2321.533
  68  2385.469
  69  2396.732
  70  2606.879
  71  2518.813
  72  2483.26
  73  2483.949
  74  2451.344
  75  2425.772
  76  2401.466
  77  2575.243
  78  2521.507
  79  2490.49
  80  2294.231
  81  2314.051
  82  2282.192
  83  2319.21
  84  2334.275
  85  2434.879
  86  2400.66
  87  2372.961
  88  2341.601
  89  2168.888
  90  2056.607
  91  2117.679
  92  2421.95
  93  2577.043
  94  2449.37
  95  2478.587
  96  2387.477
  97  2184.645
  98  2117.78
  99  2107.557
 100  2064.018
 101  2007.019
 102  2062.996
 103  2099.241
 104  1874.549
 105  2045.578
 106  2147.846
 107  2359.907
 108  2188.898
 109  2229.592
 110  2433.911
 111  2564.382
 112  2395.284
 113  2086.934
 114  1896.549
 115  1865.439
 116  1790.214
 117  1865.21
 118  1924.927
 119  2011.765
 120  2043.146
 121  2091.265
 122  2152.633
 123  2030.753
 124  2017.5
 125  2248.086
 126  2159.661
 127  1958.522
 128  1821.133
 129  1923.452
 130  1809.322
 131  1859.078
 132  2084.035
 133  2232.407
 134  2108.02
 135  2010.147
 136  1994.357
 137  1985.576
 138  1944.979
 139  2034.823
 140  2163.387
 141  2244.377
 142  2058.589
 143  2142.807
 144  2199.84
 145  2258.206
 146  2270.534
 147  2348.335
 148  2363.998
 149  2260.088
 150  2238.469
 151  2545.479
 152  2680.869
 153  2738.448
 154  2528.904
 155  2532.976
 156  2448.761
 157  2383.902
 158  2373.277
 159  2211.189
 160  2230.791
 161  2207.24
 162  2274.74
 163  2169.546
 164  2058.36
 165  2344.319
 166  2321.583
 167  2389.158
 168  2328.354
 169  2372.615
 170  2157.416
 171  2056.394
 172  2127.636
 173  2187.543
 174  2313.512
 175  2512.78
 176  2493.523
 177  2353.997
 178  2139.033
 179  2393.626
 180  2396.636
 181  2232.267
 182  1904.738
 183  1819.253
 184  1887.114
 185  1842.625
 186  2076.889
 187  2285.911
 188  2436.062
 189  2453.889
 190  2222.173
 191  2043.723
 192  1846.662
 193  1858.38
 194  1851.785
 195  1927.762
 196  1968.471
 197  1975.762
 198  2070.459
 199  2174.466
 200  2318.542
 201  2267.427
 202  2251.166
 203  2191.408
 204  2091.313
 205  2018.531
 206  1904.029
 207  1930.755
 208  2010.696
 209  1973.07
 210  1992.842
 211  1912.022
 212  2050.094
 213  2078.153
 214  2169.45
 215  2259.461
 216  2269.373
 217  2171.557
 218  2083.525
 219  2238.858
 220  2333.258
 221  2311.987
 222  2076.356
 223  1914.074
 224  1793.18
 225  1926.227
 226  2225.45
 227  2202.93
 228  2124.988
 229  2042.67
 230  2123.538
 231  2062.056
 232  2110.249
 233  2282.488
 234  2326.614
 235  2271.51
 236  2083.725
 237  2057.457
 238  1986.511
 239  2107.548
 240  2258.94
 241  2298.834
 242  2336.634
 243  2315.364
 244  2275.438
 245  2025.665
 246  2002.006
 247  1874.51
 248  1814.578
 249  1781.351
 250  1675.496
 251  1572.502
 252  1656.06
 253  1814.91
 254  1904.274
 255  1811.134
 256  2058.927
 257  2107.323
 258  2033.025
 259  1963.498
 260  2029.829
 261  2013.138
 262  1924.434
 263  1927.455
 264  2112.907
 265  2160.51
 266  2185.417
 267  2303.474
 268  2372.686
 269  2236.537
 270  2029.384
 271  2138.925
 272  2123.561
 273  1945.74
 274  1828.128
 275  2022.453
 276  2215.044
 277  2149.867
 278  2076.549
 279  2137.166
 280  2166.85
 281  2074.542
 282  2176.24
 283  2229.711
 284  2187.164
 285  2124.505
 286  2414.043
 287  2452.089
 288  2321.086
 289  1979.104
 290  2057.746
 291  2110.335
 292  2069.705
 293  2119.683
 294  2257.174
 295  2326.831
 296  2233.232
 297  2140.266
 298  2167.945
 299  2253.964
 300  2339.878
 301  2422.478
 302  2517.256
 303  2432.59
 304  2374.978
 305  2390.046
 306  2456.516
 307  2526.212
 308  2478.718
 309  2426.022
 310  2508.313
 311  2472.97
 312  2431.167
 313  2347.667
 314  2339.289
 315  2227.645
 316  2094.732
 317  2208.693
 318  2078.151
 319  1926.839
 320  1817.579
 321  1925.717
 322  2071.992
 323  2367.964
 324  2465.226
 325  2424.196
 326  2391.248
 327  2392.379
 328  2521.597
 329  2347.058
 330  2223.272
 331  2162.182
 332  2231.325
 333  2445.104
 334  2480.603
 335  2675.089
 336  2590.542
 337  2498.354
 338  2295.669
 339  2199.312
 340  2254.376
 341  2123.893
 342  2205.76
 343  2254.695
 344  2480.259
 345  2447.812
 346  2372.082
 347  2279.683
 348  2137.66
 349  1849.025
 350  1819.394
 351  1998.443
 352  2152.948
 353  2150.233
 354  2130.165
 355  2288.963
 356  2448.073
 357  2380.404
 358  2370.177
 359  2337.675
 360  2185.973
 361  1974.462
 362  1805.962
 363  1737.015
 364  1694.658
 365  1683.638
 366  1704.718
 367  1726.752
 368  1767.505
 369  2135.59
 370  2199.624
 371  2088.567
 372  1960.35
 373  1819.855
 374  1605.797
 375  1317.352
 376  1502.268
 377  1717.266
 378  1856.107
 379  1763.571
 380  1785.541
 381  1658.155
 382  1713.131
 383  1919.214
 384  1961.275
 385  1800.675
 386  1609.988
 387  1568.356
 388  1668.966
 389  1542.305
 390  1613.476
 391  1697.096
 392  1768.347
 393  1702.785
 394  1694.336
 395  1777.925
 396  1786.245
 397  1937.951
 398  1738.648
 399  1719.15
 400  1740.878
 401  1997.999
 402  1947.224
 403  1897.695
 404  1852.827
 405  1734.419
 406  1687.703
 407  1633.693
 408  1823.981
 409  1660.883
 410  1667.995
 411  1843.441
 412  2174.722
 413  2163.222
 414  2071.489
 415  2084.377
 416  1989.405
 417  1857.732
 418  1731.856
 419  1803.245
 420  1862.595
 421  1952.07
 422  2102.05
 423  2118.366
 424  2061.352
 425  2025.223
 426  2055.887
 427  2025.989
 428  1841.411
 429  1793.139
 430  1843.371
 431  1957.535
 432  1918.506
 433  2060.431
 434  2083.369
 435  2164.717
 436  2126.233
 437  2149.934
 438  2093.591
 439  1892.83
 440  1784.379
 441  1779.55
 442  1816.193
 443  1779.359
 444  1906.534
 445  1940.761
 446  1898.014
 447  1908.744
 448  1979.706
 449  2090.674
 450  1846.627
 451  1855.855
 452  1839.309
 453  1886.828
 454  1760.814
 455  1440.586
 456  1590.708
 457  1751.036
 458  1982.206
 459  1888.025
 460  1706.635
 461  1631.242
 462  1624.821
 463  1648.122
 464  1415.05
 465  1409.591
 466  1511.399
 467  1852.573
 468  1883.656
 469  1597.08
 470  1457.235
 471  1507.697
 472  1792.475
 473  1854.395
 474  1721.672
 475  1675.332
 476  1714.525
 477  1689.965
 478  1713.956
 479  1642.115
 480  1681.297
 481  1607.465
 482  1716.081
 483  1872.075
 484  2067.461
 485  2051.455
 486  1990.031
 487  1942.419
 488  1916.2
 489  1987.135
 490  1949.684
 491  1832.453
 492  1836.18
 493  1906.677
 494  2100.222
 495  2155.833
 496  2185.151
 497  2255.631
 498  2275.242
 499  2445.607
 500  2279.717
 501  2170.062
 502  2241.442
 503  2330.491
 504  2239.488
 505  2084.16
 506  2097.278
 507  2140.362
 508  2191.066
 509  2171.395
 510  2274.965
 511  2144.068
 512  2136.781
 513  2220.206
 514  2247.335
 515  2117.76
 516  2136.426
 517  2082.766
 518  2036.659
 519  1914.246
 520  1919.312
 521  1871.669
 522  1768.587
 523  1924.827
 524  2091.323
 525  2185.93
 526  2129.728
 527  2080.134
 528  2095.968
 529  2106.31
 530  2238.665
 531  2283.337
 532  2336.781
 533  2151.223
 534  1925.995
 535  1834.716
 536  1776.183
 537  1895.457
 538  1942.864
 539  2070.739
 540  2225.081
 541  2264.869
 542  2439.753
 543  2446.519
 544  2653.526
 545  2503.227
 546  2325.258
 547  1999.155
 548  1819.765
 549  1681.121
 550  1679.809
 551  1780.01
 552  2040.513
 553  2155.359
 554  2245.558
 555  2135.89
 556  2260.066
 557  2469.787
 558  2517.539
 559  2275.126
 560  1996.143
 561  1814.279
 562  1847.353
 563  1746.796
 564  1873.17
 565  2008.543
 566  2154.105
 567  2144.276
 568  2157.483
 569  2134.473
 570  2094.053
 571  2195.861
 572  2294.666
 573  2175.497
 574  1785.557
 575  1780.945
 576  1916.653
 577  2226.092
 578  2333.784
 579  2345.975
 580  2251.131
 581  1964.793
 582  2068.912
 583  2081.213
 584  2060.839
 585  2132.801
 586  1996.718
 587  2083.445
 588  1993.288
 589  2032.672
 590  2227.827
 591  2522.852
 592  2769.605
 593  2663.671
 594  2743.784
 595  2762.85
 596  2821.628
 597  2762.538
 598  2996.68
 599  3005.98
 600  2978.029
 601  2791.251
 602  2722.516
 603  2651.014
 604  2659.273
 605  2612.032
 606  2487.504
 607  2145.248
 608  1979.766
 609  1849.457
 610  1853.731
 611  1804.172
 612  1936.955
 613  2013.637
 614  2267.64
 615  2157.533
 616  2096.124
 617  1907.289
 618  1705.156
 619  1663.573
 620  1548.333
 621  1829.543
 622  2047.574
 623  2315.958
 624  2372.786
 625  2225.36
 626  2193.448
 627  2139.549
 628  1965.73
 629  1635.57
 630  1680.936
 631  1739.336
 632  1805.354
 633  1864.04
 634  1932.343
 635  1844.144
 636  1934.916
 637  2123.533
 638  2190.426
 639  1947.745
 640  1857.402
 641  1920.925
 642  1983.951
 643  1954.547
 644  1960.058
 645  1896.471
 646  1905.799
 647  1845.558
 648  1761.881
 649  1605.188
 650  1553.681
 651  1733.403
 652  1799.305
 653  1814.776
 654  1842.921
 655  1946.468
 656  1970.058
 657  1793.779
 658  1747.504
 659  1600.647
 660  1418.839
 661  1493.916
 662  1864.985
 663  2162.198
 664  2352.156
 665  2281.99
 666  2401.873
 667  2473.307
 668  2471.22
 669  2390.301
 670  2249.772
 671  2191.386
 672  2190.248
 673  2206.066
 674  2301.867
 675  2297.597
 676  2335.005
 677  2408.385
 678  2456.351
 679  2297.719
 680  2274.266
 681  2247.842
 682  2196.302
 683  2295.673
 684  2450.776
 685  2610.848
 686  2342.392
 687  2202.08
 688  2310.441
 689  2401.057
 690  2439.972
 691  2274.4
 692  2468.641
 693  2715.841
 694  2675.212
 695  2528.515
 696  2383.756
 697  2245.261
 698  2045.442
 699  1933.737
 700  1883.005
 701  1921.492
 702  1922.857
 703  1831.887
 704  2090.495
 705  2276.013
 706  2535.244
 707  2288.048
 708  2223.728
 709  2126.534
 710  1964.793
 711  1917.468
 712  1817.719
 713  1898.908
 714  1696.192
 715  1615.005
 716  1778.352
 717  1876.227
 718  1807.053
 719  1719.596
 720  1999.245
 721  2141.628
 722  1984.976
 723  2101.375
 724  2257.622
 725  2258.78
 726  2219.009
 727  2365.322
 728  2539.416
 729  2180.548
 730  1890.555
 731  2034.417
 732  2102.869
 733  2178.925
 734  2230.516
 735  2416.783
 736  2428.345
 737  2253.221
 738  2101.504
 739  1999.837
 740  1853.371
 741  1857.056
 742  2075.597
 743  2238.558
 744  2250.688
 745  2194.797
 746  2206.778
 747  2068.678
 748  1988.344
 749  1946.731
 750  1908.956
 751  1711.667
 752  1729.801
 753  1963.665
 754  2094.744
 755  2092.555
 756  2179.147
 757  2290.462
 758  2387.33
 759  2317.24
 760  2421.915
 761  2515.211
 762  2535.039
 763  2391.959
 764  2209.145
 765  2037.764
 766  1987.633
 767  1760.738
 768  1738.277
 769  1897.34
 770  2024.043
 771  2153.449
 772  2174.255
 773  2244.603
 774  2249.386
 775  2253.823
 776  2191.952
 777  2212.66
 778  2099.439
 779  2021.549
 780  1850.377
 781  1838.953
 782  2010.161
 783  2093.628
 784  2218.446
 785  2351.294
 786  2183.595
 787  2031.064
 788  1865.592
 789  1849.781
 790  1882.438
 791  2000.453
 792  1936.853
 793  1888.194
 794  1556.52
 795  1418.433
 796  1487.624
 797  1690.848
 798  1737.199
 799  1596.925
 800  1496.809
 801  1514.604
 802  1476.845
 803  1738.757
 804  1802.807
 805  1800.619
 806  1856.31
 807  1901.888
 808  1838.67
 809  1637.523
 810  1671.071
 811  1661.879
 812  1590.692
 813  1385.766
 814  1537.563
 815  1644.596
 816  1874.818
 817  1969.217
 818  1958.679
 819  1889.494
 820  1795.993
 821  1981.28
 822  1964.381
 823  1865.393
 824  1860.604
 825  1760.338
 826  1981.29
 827  2136.12
 828  2298.96
 829  2345.985
 830  2241.705
 831  2285.977
 832  2196.158
 833  2192.095
 834  1968.874
 835  1733.441
 836  1985.38
 837  2064.358
 838  2231.301
 839  2374.865
 840  2306.3
 841  2186.538
 842  2176.165
 843  2422.381
 844  2473.542
 845  2322.512
 846  2132.038
 847  2020.276
 848  1932.718
 849  1913.938
 850  2070.855
 851  2058.021
 852  1986.994
 853  1886.773
 854  2014.408
 855  2155.981
 856  1943.58
 857  1980.155
 858  1919.608
 859  1981.077
 860  2039.886
 861  2177.404
 862  2184.143
 863  2066.173
 864  2110.669
 865  2363.277
 866  2602.021
 867  2450.298
 868  2353.005
 869  2321.614
 870  2374.018
 871  2304.958
 872  2172.492
 873  2100.545
 874  2082.095
 875  2261.586
 876  2283.265
 877  2271.34
 878  2201.396
 879  2115.444
 880  2263.412
 881  2187.84
 882  2017.08
 883  1888.969
 884  1954.926
 885  1983.001
 886  1717.902
 887  1761.751
 888  1980.223
 889  2137.494
 890  1846.7
 891  1755.137
 892  1843.54
 893  1855.793
 894  1765.966
 895  2030.045
 896  2144.52
 897  2033.748
 898  1839.384
 899  1953.975
 900  1986.392
 901  1925.526
 902  1898.996
 903  2018.862
 904  1977.314
 905  1959.603
 906  1852.501
 907  1736.253
 908  1648.299
 909  1606.757
 910  1976.811
 911  2023.245
 912  1910.756
 913  1691.877
 914  1658.658
 915  1536.048
 916  1557.436
 917  1694.838
 918  1678.092
 919  1685.89
 920  1729.93
 921  1887.017
 922  2159.119
 923  2249.088
 924  2504.49
 925  2344.546
 926  2252.008
 927  1974.623
 928  1994.414
 929  2011.029
 930  1902.646
 931  1606.143
 932  1599.963
 933  1722.42
 934  1892.597
 935  1948.343
 936  2300.027
 937  2405.645
 938  2202.351
 939  1789.173
 940  1746.828
 941  1747.899
 942  1828.007
 943  1636.928
 944  1817.214
 945  1760.281
 946  1901.531
 947  1988.1
 948  2205.386
 949  2089.794
 950  1928.464
 951  1800.352
 952  1793.41
 953  1711.019
 954  1759.976
 955  1730.52
 956  1973.508
 957  1943.451
 958  1911.303
 959  1827.083
 960  1860.395
 961  1961.433
 962  1985.037
 963  1857.095
 964  1716.585
 965  1582.813
 966  1556.58
 967  1603.322
 968  1778.991
 969  1840.111
 970  1774.626
 971  1844.824
 972  1999.992
 973  1937.331
 974  1766.436
 975  1677.825
 976  1694.833
 977  1741.069
 978  1767.869
 979  1891.848
 980  1861.166
 981  1619.406
 982  1389.251
 983  1526.164
 984  1676.296
 985  1670.25
 986  1757.422
 987  1944.409
 988  1996.429
 989  1807.008
 990  1967.623
 991  1969.591
 992  1963.975
 993  1906.415
 994  2014.808
 995  2079.586
 996  2003.354
 997  1957.252
 998  1955.879
 999  1963.178
1000  1882.927
1001  1883.128
1002  1826.724
1003  1891.733
1004  1840.874
1005  1907.568
1006  1941.269
1007  1971.812
1008  2182.532
1009  2340.74
1010  2431.478
1011  2326.303
1012  2246.577
1013  2307.729
1014  2330.882
1015  2415.749
1016  2336.117
1017  2102.313
1018  2121.083
1019  2217.237
1020  2262.181
1021  2179.259
1022  2203.233
1023  2427.781
