# Input file       =  1211269825.111266_cleaned.dat
# Candidate        =  PSR_0332+5434
# Telescope        =  AR
# Epoch_topo       =  58263.326899435946
# Epoch_bary       =  N/A
# T_sample         =  0.002
# Data Folded      =  7340032
# Data Avg         =  0.243955645214424
# Data StdDev      =  6.67926414201603 
# Profile Bins     =  1024
# Profile Avg      =  1748.39906614131 
# Profile StdDev   =  565.49349954194  
# Reduced chi-sqr  =  0.840
# Prob(Noise)      <  1   (~0.0 sigma)
# P_topo (ms)      =  714.523462645219  +/- 0.00029
# P'_topo (s/s)    =  -0                +/- 1.53e-10
# P''_topo (s/s^2) =  0                 +/- 6.76e-14
# P_bary (ms)      =  N/A
# P'_bary (s/s)    =  N/A
# P''_bary (s/s^2) =  N/A
# P_orb (s)        =  N/A
# asin(i)/c (s)    =  N/A
# eccentricity     =  N/A
# w (rad)          =  N/A
# T_peri           =  N/A
######################################################
   0  1509.267
   1  1491.838
   2  1494.836
   3  1404.624
   4  1208.118
   5  1354.429
   6  1430.225
   7  1581.253
   8  1288.13
   9  1278.57
  10  1396.496
  11  1629.871
  12  1721.069
  13  1778.868
  14  2007
  15  2004.5
  16  1974.932
  17  1808.532
  18  2055.666
  19  2119.136
  20  1914.23
  21  1870.477
  22  1841.281
  23  1841.93
  24  1581.124
  25  1573.099
  26  1783.753
  27  1860.381
  28  1766.825
  29  1397.793
  30  1393.947
  31  1611.773
  32  1834.986
  33  1918.657
  34  1872.795
  35  1759.452
  36  1708.498
  37  1775.032
  38  1666.356
  39  1637.223
  40  1573.462
  41  1582.338
  42  1591.177
  43  1500.166
  44  1385.362
  45  1287.18
  46  1122.34
  47  1481.051
  48  1621.495
  49  1879.259
  50  1676.767
  51  1487.424
  52  1466.185
  53  1684.324
  54  1883.243
  55  1989.379
  56  1849.645
  57  1707.807
  58  1420.078
  59  1311.358
  60  1558.135
  61  1801.061
  62  1781.932
  63  1556.327
  64  1481.438
  65  1590.198
  66  1448.338
  67  1505.915
  68  1561.328
  69  1804.639
  70  1847.546
  71  1722.661
  72  1681.921
  73  1606.952
  74  1477.786
  75  1244.819
  76  1298.448
  77  1499.972
  78  1619.247
  79  1477.342
  80  1347.351
  81  1351.538
  82  1419.89
  83  1607.286
  84  1613.878
  85  1506.937
  86  1384.083
  87  1409.24
  88  1627.187
  89  1656.278
  90  1687.539
  91  1753.036
  92  1730.911
  93  1690.157
  94  1486.936
  95  1612.508
  96  1638.811
  97  1624.26
  98  1294.505
  99  1425.105
 100  1552.86
 101  1763.562
 102  1914.831
 103  1768.417
 104  1554.08
 105  1231.311
 106  1406.124
 107  1428
 108  1384.736
 109  1500.739
 110  1588.132
 111  1611.148
 112  1493.987
 113  1479.295
 114  1549.542
 115  1471.025
 116  1524.141
 117  1481.568
 118  1664.9
 119  1509.986
 120  1503.794
 121  1265.504
 122  1189.032
 123  1310.312
 124  1539.322
 125  1650.587
 126  1566.854
 127  1393.157
 128  1448.693
 129  1709.22
 130  1714.545
 131  1624.897
 132  1570.324
 133  1437.331
 134  1361.813
 135  1254.092
 136  1333.143
 137  1540.961
 138  1607.526
 139  1608.761
 140  1383.299
 141  1438.266
 142  1486.446
 143  1501.414
 144  1569.4
 145  1728.493
 146  1640.562
 147  1715.99
 148  1663.935
 149  1541.539
 150  1431.081
 151  1517.398
 152  1773.367
 153  1735.902
 154  1747.15
 155  1732.754
 156  1648.348
 157  1571.431
 158  1600.511
 159  1785.939
 160  1757.285
 161  1712.948
 162  1586.343
 163  1366.535
 164  1143.801
 165  1006.591
 166  1063.466
 167  1303.925
 168  1611.257
 169  1870.713
 170  1864.461
 171  2042.402
 172  1984.504
 173  2138
 174  2104.319
 175  1950.483
 176  1561.596
 177  1134.783
 178  1273.786
 179  1446.201
 180  1653.051
 181  1497.781
 182  1549.322
 183  1626.572
 184  1613.004
 185  1456.364
 186  1337.445
 187  1354.213
 188  1352.577
 189  1350.56
 190  1519.648
 191  1525.382
 192  1616.164
 193  1464.109
 194  1556.726
 195  1575.071
 196  1569.561
 197  1522.577
 198  1418.147
 199  1415.636
 200  1201.195
 201  1190.85
 202  1155.136
 203  1322.742
 204  1506.67
 205  1707.33
 206  1884.104
 207  1816.858
 208  1666.328
 209  1472.463
 210  1296.43
 211  1131.055
 212  1319.615
 213  1589.936
 214  1686.251
 215  1848.738
 216  1784.202
 217  1756.727
 218  1649.152
 219  1743.973
 220  1750.064
 221  1412.118
 222  1376.467
 223  1410.536
 224  1370.276
 225  1090.098
 226  1045.106
 227  1218.895
 228  1430.247
 229  1611.799
 230  1673.338
 231  1769.949
 232  1723.422
 233  1820.801
 234  1877.906
 235  1786.958
 236  1623.976
 237  1473.96
 238  1610.726
 239  1529.98
 240  1527.092
 241  1516.875
 242  1687.652
 243  1694.48
 244  1703.31
 245  1633.581
 246  1648.501
 247  1531.37
 248  1437.93
 249  1540.886
 250  1751.996
 251  1909.905
 252  1639.474
 253  1430.858
 254  1573.259
 255  1736.315
 256  1868.59
 257  1729.083
 258  1490.407
 259  1155.054
 260  1071.263
 261  1430.555
 262  1747.483
 263  1926.874
 264  1861.955
 265  1934.597
 266  1914.948
 267  1801.712
 268  1519.603
 269  1493.801
 270  1515.232
 271  1713.454
 272  1789.731
 273  1842.213
 274  1847.325
 275  1907.666
 276  1933.52
 277  2064.604
 278  1884.207
 279  1778.156
 280  1536.618
 281  1539.749
 282  1624.636
 283  1732.558
 284  1660.867
 285  1534.631
 286  1488.76
 287  1816.484
 288  1909.519
 289  1924.613
 290  1727.548
 291  1728.5
 292  1726.82
 293  1655.66
 294  1720.976
 295  1725.255
 296  1630.716
 297  1447.44
 298  1335.904
 299  1683.753
 300  1919.299
 301  2030.215
 302  1717.344
 303  1654.361
 304  1722.644
 305  1747.32
 306  1750.786
 307  2018.539
 308  2171.978
 309  2139.186
 310  1852.275
 311  1802.891
 312  1806.68
 313  1940.3
 314  2087.265
 315  2025.095
 316  1695.273
 317  1633.762
 318  1792.759
 319  1937.102
 320  1785.8
 321  1597.751
 322  1772.522
 323  1751.863
 324  1637.956
 325  1570.09
 326  1532.316
 327  1519.276
 328  1331.076
 329  1386.285
 330  1523.336
 331  1717.931
 332  1719.147
 333  1974.194
 334  1984.804
 335  1965.138
 336  1759.149
 337  1692.353
 338  1587.444
 339  1338.56
 340  1399.722
 341  1661.838
 342  1995.991
 343  1985.898
 344  1913.602
 345  2005.849
 346  2101.113
 347  2200.232
 348  2162.725
 349  2242.949
 350  2093.179
 351  1892.923
 352  1939.15
 353  1803.419
 354  1741.102
 355  1621.112
 356  1856.573
 357  1687.864
 358  1674.091
 359  1513.005
 360  1790.38
 361  2093.68
 362  2074.322
 363  2026.683
 364  1889.725
 365  2034.061
 366  1860.913
 367  1809.674
 368  1896.648
 369  1859.39
 370  1597.393
 371  1416.251
 372  1462.764
 373  1412.425
 374  1460.17
 375  1451.896
 376  1344.453
 377  1266.417
 378  1296.015
 379  1634.117
 380  1588.065
 381  1392.842
 382  1333.238
 383  1519.253
 384  1458.405
 385  1462.71
 386  1539.331
 387  1810.708
 388  1751.21
 389  1561.955
 390  1566.441
 391  1557.97
 392  1421.422
 393  1428.656
 394  1537.189
 395  1515.327
 396  1275.008
 397  1313.074
 398  1469.031
 399  1373.917
 400  1369.386
 401  1464.758
 402  1551.981
 403  1472.461
 404  1303.022
 405  1342.309
 406  1410.492
 407  1419.094
 408  1393.396
 409  1443.761
 410  1597.301
 411  1635.978
 412  1580.014
 413  1504.519
 414  1520.966
 415  1588.941
 416  1817.534
 417  1831.151
 418  1828.954
 419  1693.333
 420  1860.519
 421  2004.679
 422  1731.154
 423  1502.239
 424  1361.187
 425  1585.043
 426  1614.629
 427  1569.674
 428  1573.148
 429  1523.485
 430  1557.733
 431  1677.036
 432  1981.008
 433  1950.276
 434  1891.436
 435  1903.24
 436  1902.331
 437  1862.869
 438  1579.423
 439  1789.773
 440  1747.205
 441  1705.141
 442  1524.037
 443  1636.592
 444  1888.099
 445  1829.028
 446  1896.791
 447  1870.561
 448  1745.997
 449  1610.555
 450  1800.735
 451  2175.153
 452  2158.452
 453  2002.996
 454  1847.486
 455  1990.509
 456  2066.941
 457  2176.003
 458  2076.378
 459  1944.757
 460  1819.917
 461  1775.51
 462  1878.017
 463  1693.605
 464  1665.908
 465  1525.373
 466  1639.352
 467  1704.816
 468  1780.467
 469  1876.877
 470  1670.808
 471  1437.747
 472  1446.66
 473  1440.296
 474  1484.281
 475  1284.817
 476  1293.002
 477  1406.864
 478  1535.103
 479  1331.874
 480  1453.426
 481  1626.7
 482  1662.244
 483  1446.332
 484  1317.665
 485  1690.426
 486  1760.908
 487  1820.836
 488  1691.167
 489  1744.578
 490  1709.308
 491  1752.756
 492  1821.465
 493  1875.697
 494  1711.484
 495  1572.435
 496  1571.829
 497  1817.755
 498  1930.035
 499  2252.968
 500  2241.478
 501  2137.666
 502  1932.015
 503  1944.505
 504  1952.425
 505  1659.051
 506  1644.863
 507  1612.388
 508  1691.964
 509  1494.469
 510  1463.026
 511  1637.535
 512  1704.71
 513  1868.295
 514  1913.444
 515  2019.268
 516  2160.021
 517  1952.002
 518  1907.606
 519  1662.494
 520  1776.417
 521  1687.402
 522  1693.702
 523  1747.356
 524  1797.265
 525  1894.347
 526  1742.984
 527  1595.557
 528  1377.937
 529  1578.165
 530  1716.942
 531  1900.778
 532  1737.698
 533  1787.314
 534  1907.018
 535  2168.034
 536  2305.268
 537  2123.263
 538  1861.855
 539  1855.314
 540  1849.453
 541  1750.05
 542  1735.158
 543  1589.92
 544  1574.077
 545  1508.961
 546  1663.485
 547  1684.922
 548  1751.276
 549  1849.21
 550  2129.789
 551  2220.433
 552  2220.257
 553  2081.132
 554  2013.696
 555  1995.129
 556  1836.724
 557  1900.834
 558  1843.515
 559  1866.906
 560  1858.152
 561  1850.693
 562  1820.969
 563  1693.142
 564  1829.524
 565  1803.942
 566  1657.209
 567  1522.244
 568  1614.898
 569  1749.638
 570  1926.209
 571  1924.281
 572  1988.383
 573  1752.594
 574  1669.624
 575  1741.449
 576  2109.857
 577  2256.799
 578  2022.667
 579  1891.644
 580  1814.126
 581  1783.152
 582  1721.916
 583  1858.152
 584  1944.448
 585  1840.104
 586  1756.938
 587  1795.766
 588  1816.531
 589  1683.583
 590  1932.457
 591  2255.007
 592  2534.33
 593  2623.277
 594  2505.266
 595  2684.19
 596  2535.292
 597  2586.706
 598  2635.982
 599  2814.948
 600  2760.719
 601  2608.725
 602  2480.884
 603  2338.156
 604  2087.838
 605  2006.658
 606  2005.619
 607  1832.557
 608  1702.679
 609  1660.523
 610  1958.59
 611  2119.798
 612  2155.448
 613  2081.09
 614  1765.696
 615  1790.245
 616  1617.931
 617  1575.278
 618  1664.656
 619  1521.099
 620  1499
 621  1187.374
 622  1117.662
 623  1214.566
 624  1477.074
 625  1734.969
 626  1811.98
 627  1796.092
 628  1646.781
 629  1485.295
 630  1234.766
 631  1325.481
 632  1517.416
 633  1821.595
 634  2052.342
 635  2192.422
 636  2301.719
 637  2254.303
 638  2273.416
 639  2166.186
 640  2211.116
 641  1984.504
 642  1828.181
 643  1780.328
 644  1818.931
 645  2081.195
 646  2017.724
 647  2114.65
 648  1842.939
 649  1673.715
 650  1480.547
 651  1455.497
 652  1635.892
 653  1741.522
 654  1805.697
 655  1613.935
 656  1476.108
 657  1386.368
 658  1469.514
 659  1705.991
 660  1819.725
 661  1673.216
 662  1662.199
 663  1667.279
 664  1773.518
 665  1654.539
 666  1608.626
 667  1511.189
 668  1482.032
 669  1520.792
 670  1682.788
 671  1668.711
 672  1479.618
 673  1459.665
 674  1486.927
 675  1621.812
 676  1549.318
 677  1475.944
 678  1495.967
 679  1489.793
 680  1472.485
 681  1508.18
 682  1679.564
 683  1811.907
 684  1689.032
 685  1786.251
 686  1805.836
 687  1813.724
 688  1629.691
 689  1593.212
 690  1698.373
 691  1605.816
 692  1580.634
 693  1585.211
 694  1704.583
 695  1646.413
 696  1780.747
 697  1942.641
 698  2041.491
 699  1835.263
 700  1577.83
 701  1343.773
 702  1402.056
 703  1639.023
 704  1735.983
 705  1626.006
 706  1686.628
 707  1737.703
 708  1871.16
 709  1953.878
 710  2084.471
 711  1936.193
 712  1825.693
 713  1707.747
 714  1879.988
 715  1711.132
 716  1724.46
 717  1730.9
 718  1679.713
 719  1764.674
 720  1770.057
 721  1847.772
 722  1632.191
 723  1729.468
 724  1833.443
 725  1881.846
 726  1617.273
 727  1518.072
 728  1661.496
 729  1690.907
 730  1800.267
 731  1786.609
 732  1920.275
 733  1861.736
 734  1753.501
 735  1744.831
 736  1727.51
 737  1747.955
 738  1936.046
 739  1941.498
 740  2194.362
 741  2172.633
 742  2343.878
 743  2160.327
 744  2178.363
 745  2395.986
 746  2480.483
 747  2458.975
 748  2211.103
 749  2177.792
 750  1977.727
 751  1880.019
 752  1826.231
 753  1928.087
 754  2259.877
 755  2328.985
 756  2416.666
 757  2325.313
 758  2376.124
 759  2132.488
 760  2284.806
 761  2331.302
 762  2351.407
 763  2162.358
 764  1783.359
 765  1957.383
 766  2123.812
 767  2361.935
 768  2343.092
 769  2261.214
 770  2504.906
 771  2463.974
 772  2329.922
 773  2207.641
 774  2233.063
 775  2096.938
 776  1868.259
 777  2059.99
 778  2203.32
 779  2349.405
 780  2309.322
 781  2559.106
 782  2464.706
 783  2212.526
 784  2043.777
 785  2056.627
 786  2100.138
 787  1879.083
 788  1932.617
 789  2035.844
 790  2053.495
 791  2073.295
 792  2079.571
 793  2273.466
 794  2262.324
 795  2393.99
 796  2397.734
 797  2372.319
 798  2277.878
 799  2226.513
 800  2399.009
 801  2303.658
 802  2255.875
 803  1947.271
 804  1941.111
 805  1793.478
 806  1816.058
 807  1955.825
 808  2033.304
 809  2324.47
 810  2236.954
 811  2201.028
 812  2040.872
 813  2138.629
 814  2228.723
 815  2241.38
 816  2194.309
 817  1984.718
 818  1905.554
 819  1803.027
 820  1855.099
 821  1972.282
 822  2073.385
 823  2065.047
 824  1893.977
 825  1772.723
 826  1659.128
 827  1785.969
 828  1967.409
 829  2060.916
 830  2024.97
 831  2025.51
 832  2174.882
 833  2253.975
 834  2195.526
 835  2122.042
 836  1986.824
 837  2246.106
 838  2131.431
 839  2089.892
 840  1688.355
 841  1820.791
 842  1733.613
 843  1736.65
 844  1718.958
 845  1866.093
 846  1990.08
 847  1937.587
 848  1995.356
 849  1947.317
 850  1920.037
 851  1928.944
 852  1888.565
 853  2176.895
 854  2240.662
 855  2323.053
 856  2266.628
 857  2325.44
 858  2243.2
 859  2240.02
 860  2098.866
 861  1830.51
 862  1656.698
 863  1484.411
 864  1746.582
 865  1709.03
 866  1828.556
 867  2005.029
 868  1859.59
 869  1857.344
 870  1837.402
 871  2138.852
 872  2147.302
 873  2013.062
 874  1998.901
 875  2009.819
 876  2141.967
 877  2076.498
 878  1983.466
 879  1877.511
 880  1724.431
 881  1876.006
 882  1947.866
 883  2054.955
 884  1757.217
 885  1705.326
 886  1578.018
 887  1702.944
 888  1607.763
 889  1700.26
 890  1757.24
 891  1603.111
 892  1788.603
 893  1792.821
 894  1898.958
 895  1631.976
 896  1578.604
 897  1845.114
 898  1844.116
 899  1486.746
 900  1339.758
 901  1548.152
 902  1700.134
 903  1690.108
 904  1860.004
 905  1956.121
 906  1925.441
 907  1600.535
 908  1730.066
 909  1897.502
 910  1966.489
 911  1867.423
 912  1683.059
 913  2028.893
 914  2104.462
 915  2261.691
 916  2293.491
 917  2313.686
 918  2180.072
 919  1996.147
 920  2077.969
 921  1989.402
 922  1925.559
 923  1695.385
 924  1541.436
 925  1567.531
 926  1486.83
 927  1755.768
 928  1846.921
 929  1861.946
 930  1571.681
 931  1558.48
 932  1567.746
 933  1534.952
 934  1265.831
 935  1070.617
 936  1122.209
 937  1131.754
 938  1350.544
 939  1531.496
 940  1778.335
 941  1979.304
 942  1886.189
 943  2100.613
 944  2106.647
 945  1907.339
 946  1594.896
 947  1307.285
 948  1281.181
 949  1041.126
 950  1228.051
 951  1407.135
 952  1862.033
 953  2031.409
 954  2157.214
 955  2082.919
 956  1819.571
 957  1659.806
 958  1548.974
 959  1941.533
 960  1895.718
 961  1900.875
 962  1776.732
 963  1818.289
 964  1798.659
 965  1778.271
 966  1936.009
 967  2052.518
 968  2163.981
 969  2133.844
 970  2120.432
 971  1862.246
 972  1728.015
 973  1881.179
 974  1818.938
 975  1882.443
 976  1707.653
 977  1898.153
 978  1902.615
 979  1669.715
 980  1676.165
 981  1753.484
 982  1729.513
 983  1494.295
 984  1472.955
 985  1606.8
 986  1548.369
 987  1426.703
 988  1352.419
 989  1655.537
 990  1772.343
 991  1789.922
 992  1503.005
 993  1394.32
 994  1414.854
 995  1379.214
 996  1383.391
 997  1463.732
 998  1681.403
 999  1696.876
1000  1592.807
1001  1569.897
1002  1649.73
1003  1654.84
1004  1464.287
1005  1287.631
1006  1305.815
1007  1570.167
1008  1730.012
1009  1515.281
1010  1438.85
1011  1416.929
1012  1630.915
1013  1274.696
1014  1205.658
1015  1338.934
1016  1632.331
1017  1774.887
1018  1796.12
1019  1749.146
1020  1727.47
1021  1568.321
1022  1603.048
1023  1515.592
