# Input file       =  1211356001.104333_cleaned.dat
# Candidate        =  PSR_0332+5434
# Telescope        =  AR
# Epoch_topo       =  58264.324306763112
# Epoch_bary       =  N/A
# T_sample         =  0.002
# Data Folded      =  7340032
# Data Avg         =  0.289559996188992
# Data StdDev      =  5.94386200038994 
# Profile Bins     =  256
# Profile Avg      =  8303.86429349055 
# Profile StdDev   =  1006.4627635404  
# Reduced chi-sqr  =  1.291
# Prob(Noise)      <  0.00117   (~3.0 sigma)
# P_topo (ms)      =  714.522485704634  +/- 0.000332
# P'_topo (s/s)    =  -0                +/- 1.75e-10
# P''_topo (s/s^2) =  0                 +/- 7.73e-14
# P_bary (ms)      =  N/A
# P'_bary (s/s)    =  N/A
# P''_bary (s/s^2) =  N/A
# P_orb (s)        =  N/A
# asin(i)/c (s)    =  N/A
# eccentricity     =  N/A
# w (rad)          =  N/A
# T_peri           =  N/A
######################################################
   0  9867.537
   1  9469.788
   2  9603.248
   3  10025.47
   4  9582.108
   5  8650.33
   6  9541.374
   7  8811.676
   8  8590.419
   9  9448.436
  10  8233.461
  11  9826.531
  12  8805.278
  13  8569.015
  14  8359.748
  15  8986.083
  16  9364.99
  17  9822.465
  18  9883.343
  19  9945.55
  20  9305.348
  21  9484.867
  22  8808.246
  23  9757.306
  24  8978.69
  25  8259.238
  26  8283.168
  27  9310.942
  28  8624.476
  29  7509.619
  30  8303.504
  31  8448.8
  32  7426.609
  33  8380.647
  34  7903.401
  35  8550.331
  36  8968.311
  37  9320.925
  38  10516.69
  39  9577.988
  40  8920.906
  41  8973.812
  42  9084.897
  43  8891.946
  44  9425.404
  45  8681.602
  46  7832.718
  47  9332.113
  48  7475.97
  49  8093.812
  50  9004.662
  51  8085.276
  52  7922.595
  53  8384.037
  54  8753.317
  55  8833.081
  56  7963.703
  57  8423.992
  58  8928.062
  59  8263.042
  60  9119.983
  61  8430.031
  62  6985.713
  63  7029.745
  64  8121.485
  65  7884.147
  66  8542.854
  67  8902.832
  68  7969.549
  69  8520.952
  70  8589.303
  71  9084.259
  72  8620.63
  73  8695.131
  74  8838.458
  75  9604.137
  76  9674.435
  77  9933.137
  78  9506.079
  79  8479.605
  80  7878.518
  81  9658.669
  82  9425.317
  83  9544.124
  84  9851.468
  85  8769.109
  86  9606.093
  87  7892.257
  88  8588.017
  89  9544.216
  90  8033.697
  91  6789.506
  92  8027.983
  93  7060.612
  94  6664.966
  95  6912.426
  96  7127.893
  97  6487.676
  98  6927.903
  99  7199.221
 100  7478.725
 101  7017.584
 102  6859.776
 103  8422.354
 104  7510.722
 105  7877.273
 106  8267.669
 107  7429.904
 108  8135.463
 109  8384.397
 110  7260.769
 111  7550.267
 112  7784.462
 113  7160.716
 114  6989.061
 115  6746.09
 116  5994.794
 117  6643.412
 118  7002.638
 119  6741.521
 120  6763.649
 121  8055.541
 122  7763.745
 123  7827.045
 124  8973.921
 125  9099.31
 126  8662.658
 127  8787.698
 128  8721.135
 129  8276.55
 130  7448.283
 131  8415.696
 132  8640.991
 133  8482.894
 134  7539.352
 135  9191.939
 136  9779.372
 137  6992.838
 138  8429.616
 139  9500.272
 140  7604.385
 141  7988.695
 142  8552.521
 143  8218.306
 144  8592.885
 145  8488.855
 146  8282.562
 147  8468.741
 148  10864.43
 149  11490.4
 150  11351.19
 151  10146.17
 152  7625.5
 153  8244.236
 154  7609.653
 155  7357.062
 156  9047.197
 157  7205.926
 158  7399.533
 159  8180.529
 160  7690.798
 161  7664.249
 162  6674.027
 163  7323.564
 164  7307.479
 165  6615.662
 166  9375.928
 167  9486.914
 168  8901.59
 169  9530.721
 170  8960.15
 171  9683.261
 172  9392.612
 173  10292.72
 174  8854.537
 175  7614.854
 176  9012.421
 177  8389.721
 178  7184.171
 179  7077.394
 180  8023.354
 181  8981.131
 182  8818.096
 183  8764.516
 184  9007.326
 185  7884.147
 186  8819.941
 187  7726.52
 188  7686.699
 189  9062.371
 190  9850.497
 191  8299.511
 192  7605.271
 193  8893.917
 194  8683.388
 195  7663.421
 196  8894.712
 197  7546.274
 198  7138.875
 199  6402.519
 200  6161.856
 201  7261.037
 202  6937.181
 203  6146.148
 204  7597.571
 205  7634.284
 206  7576.957
 207  9105.796
 208  8359.906
 209  8325.287
 210  9062.846
 211  9149.495
 212  7982.733
 213  7957.851
 214  7918.882
 215  8443.388
 216  9390.634
 217  9381.741
 218  8602.675
 219  8951.477
 220  8475.702
 221  7456.67
 222  7738.03
 223  7333.16
 224  8013.688
 225  7801.563
 226  7701.144
 227  7133.049
 228  7025.361
 229  6517.072
 230  7740.204
 231  9251.267
 232  7697.192
 233  6965.611
 234  8819.733
 235  7007.833
 236  7257.303
 237  8145.101
 238  7029.527
 239  7608.353
 240  7683.56
 241  6541.539
 242  7122.912
 243  7473.64
 244  6983.975
 245  6568.121
 246  6818.563
 247  7763
 248  7909.495
 249  7935.329
 250  7505.002
 251  7631.891
 252  9127.14
 253  9247.127
 254  8845.496
 255  8949.986
