# Input file       =  1212749416.100264_cleaned.dat
# Candidate        =  PSR_0332+5434
# Telescope        =  AR
# Epoch_topo       =  58280.451795141948
# Epoch_bary       =  N/A
# T_sample         =  0.002
# Data Folded      =  2293760
# Data Avg         =  17.8581060841247 
# Data StdDev      =  284.735342744602 
# Profile Bins     =  512
# Profile Avg      =  80004.2838750812 
# Profile StdDev   =  19058.134353271  
# Reduced chi-sqr  =  0.672
# Prob(Noise)      <  1   (~0.0 sigma)
# P_topo (ms)      =  714.50719762337   +/- 0.00278
# P'_topo (s/s)    =  -0                +/- 4.69e-09
# P''_topo (s/s^2) =  0                 +/- 6.62e-12
# P_bary (ms)      =  N/A
# P'_bary (s/s)    =  N/A
# P''_bary (s/s^2) =  N/A
# P_orb (s)        =  N/A
# asin(i)/c (s)    =  N/A
# eccentricity     =  N/A
# w (rad)          =  N/A
# T_peri           =  N/A
######################################################
   0  68235.89
   1  70645.23
   2  80497.67
   3  68556.32
   4  73499.33
   5  80260.98
   6  80211.98
   7  68714.79
   8  66078.98
   9  76958
  10  85687.73
  11  96747.08
  12  82387.34
  13  77713.77
  14  69484.11
  15  69256
  16  79325.58
  17  74847.73
  18  58591.34
  19  69349.47
  20  81174.73
  21  75011.27
  22  78749.67
  23  71690.8
  24  75079.97
  25  83694.72
  26  71442.8
  27  65544.45
  28  79618.46
  29  73346.76
  30  74719.51
  31  73374.37
  32  77217.73
  33  68873.47
  34  76101.74
  35  74535.35
  36  84982.74
  37  88427.73
  38  84229.3
  39  66112.41
  40  70987.84
  41  76760.7
  42  73560.3
  43  75764.19
  44  65218.03
  45  68721.89
  46  63136.74
  47  74553.79
  48  76028.23
  49  78137.39
  50  82030.61
  51  73630.57
  52  59544.07
  53  67033.54
  54  82202.58
  55  78179.84
  56  84626.08
  57  87547.37
  58  85845.42
  59  76985.91
  60  71880.84
  61  82535.97
  62  90532.64
  63  82685.52
  64  89896.41
  65  97658.75
  66  77878.52
  67  61549.66
  68  69940.77
  69  79198.48
  70  75046.2
  71  84440.27
  72  83330.09
  73  73792.91
  74  67168.19
  75  75689.33
  76  72108.3
  77  59004.08
  78  52938.1
  79  66392.02
  80  66031.27
  81  64516.6
  82  65835.7
  83  68793.48
  84  78499.42
  85  77634.21
  86  66480.06
  87  60576.68
  88  67693.01
  89  65993.88
  90  57842.81
  91  62334.49
  92  76755.14
  93  79367.93
  94  71430.29
  95  69737.45
  96  64838.97
  97  68240.92
  98  82055.13
  99  75849.39
 100  74920.44
 101  75521.25
 102  84059.75
 103  93170.09
 104  76725.05
 105  73931.3
 106  84278.3
 107  79992.43
 108  81895.99
 109  76569.95
 110  68850.7
 111  71099.34
 112  68802.74
 113  66553.4
 114  67739.83
 115  83045.17
 116  66007.27
 117  59285.11
 118  69854.3
 119  65003.59
 120  70324.96
 121  93983.36
 122  76840.66
 123  68606.1
 124  66862.37
 125  77425.06
 126  73684.33
 127  75796.73
 128  81197.85
 129  68727.92
 130  57152.7
 131  58013.2
 132  73332.16
 133  81389.49
 134  71658.15
 135  77171.91
 136  74950.5
 137  73880.66
 138  70116.57
 139  74271.3
 140  72458.09
 141  78463.8
 142  80369.11
 143  82862.52
 144  73769.83
 145  64860.52
 146  64070.99
 147  62546.89
 148  71728.3
 149  70214.45
 150  71834.59
 151  79743.03
 152  74707.85
 153  81394.25
 154  86639.31
 155  91591.73
 156  95522.48
 157  79586.98
 158  76854.49
 159  82326.86
 160  82785.23
 161  95302.96
 162  87554.64
 163  77058.31
 164  74994.52
 165  75000.74
 166  87071.02
 167  91617.29
 168  70312.88
 169  64265.7
 170  74157.45
 171  86049.53
 172  73926.31
 173  67868.1
 174  88841.53
 175  84943.94
 176  83232.25
 177  78248.2
 178  73902.28
 179  76854.08
 180  75500.28
 181  69962.75
 182  72109.95
 183  69404.38
 184  75533.73
 185  67019.53
 186  71618.27
 187  67926.45
 188  81037.55
 189  76227.83
 190  51519.87
 191  66248.31
 192  77828.96
 193  73433.58
 194  70976.95
 195  67856.19
 196  73646.77
 197  61071.56
 198  66720.77
 199  70320.66
 200  76843.55
 201  84014.46
 202  83843.34
 203  89657.16
 204  83025.02
 205  80150.13
 206  78211.64
 207  74021.79
 208  68427.34
 209  60930.11
 210  64174.16
 211  68852.93
 212  74585.07
 213  72504.66
 214  71913.31
 215  69254.7
 216  75581.73
 217  89573.5
 218  88565.29
 219  92904.51
 220  90087.49
 221  83144.41
 222  76964.45
 223  77561.48
 224  77739.66
 225  74409.45
 226  75539.99
 227  74657.55
 228  72039.22
 229  80834.69
 230  82796.37
 231  89072.92
 232  89378.45
 233  97603.13
 234  85855.36
 235  78214.39
 236  84236.09
 237  80174.3
 238  93988.98
 239  106232.6
 240  110381.1
 241  100408.9
 242  99041.63
 243  96346.61
 244  84570.97
 245  96679
 246  104974.7
 247  88367.32
 248  85346.02
 249  92562.96
 250  93781.88
 251  83647.09
 252  107268
 253  110214.1
 254  98346.14
 255  95883.94
 256  91805.27
 257  96684.88
 258  88120.23
 259  101483.5
 260  114301.1
 261  106271.1
 262  95509.46
 263  86934.95
 264  99864.1
 265  96938.45
 266  100294.6
 267  98349.34
 268  81938.27
 269  76788.75
 270  90760.67
 271  86367.47
 272  79597.35
 273  100482.6
 274  102177.9
 275  87480.47
 276  88304.93
 277  84762.32
 278  74935.85
 279  72515.57
 280  83274.19
 281  79358.05
 282  72388.34
 283  66611.67
 284  61452.93
 285  75972.8
 286  75221.05
 287  94877.47
 288  87464.3
 289  86174.64
 290  88907.69
 291  93322.46
 292  88599.04
 293  100256.8
 294  99452.94
 295  107187.1
 296  79539.34
 297  69264.55
 298  76181.88
 299  85626.45
 300  107748.4
 301  96879.42
 302  88671.48
 303  82125.52
 304  95411.51
 305  89234.01
 306  92952.7
 307  86364.69
 308  84371.66
 309  90176.58
 310  78704.33
 311  84092.26
 312  87940.03
 313  88466.33
 314  101134.7
 315  92182.38
 316  105838.1
 317  88147.55
 318  79096.94
 319  96504.38
 320  104883.2
 321  88838.75
 322  103054.5
 323  98968.24
 324  100709.3
 325  95804.52
 326  108027.7
 327  98212.64
 328  97945.37
 329  117550.5
 330  103490.4
 331  77110.02
 332  85767.25
 333  95272.85
 334  86788.95
 335  74199.38
 336  96799.2
 337  90146.95
 338  86144.3
 339  91644.52
 340  90281.1
 341  91382.24
 342  87799.19
 343  75425.36
 344  95602.27
 345  94872.15
 346  97361.27
 347  83609.16
 348  78891.44
 349  87205.01
 350  88742.02
 351  88885.34
 352  81233.78
 353  87002.8
 354  94334.37
 355  90371.53
 356  85771.84
 357  79934.29
 358  79109.12
 359  82259.82
 360  91947.53
 361  95488.97
 362  94395.38
 363  72297.19
 364  63012.35
 365  58057.76
 366  68442.24
 367  67154.47
 368  76213.75
 369  77882.43
 370  80390.16
 371  78267.84
 372  81065.58
 373  77321.71
 374  84464.84
 375  88466.87
 376  93646.38
 377  93338.48
 378  96759.32
 379  88356.6
 380  73783.3
 381  73527.95
 382  72959.12
 383  84891.05
 384  87613.65
 385  83078.25
 386  82660.49
 387  78849.66
 388  70678.92
 389  66586.69
 390  74505.35
 391  70418.94
 392  67965.77
 393  59427.12
 394  73478.78
 395  74093.49
 396  65509.46
 397  71711.1
 398  75359.23
 399  83605.84
 400  87796.11
 401  70798.25
 402  79132.38
 403  73566.04
 404  73472.5
 405  59190.26
 406  68953.81
 407  85772.3
 408  79261.57
 409  65049.98
 410  74704.31
 411  83241.85
 412  77266.16
 413  86165.55
 414  89592.86
 415  77457.8
 416  81204.38
 417  83873.59
 418  72706.33
 419  81670.02
 420  73296.62
 421  86659.88
 422  91226.94
 423  84269.64
 424  83032.11
 425  68654.53
 426  76337
 427  87445.32
 428  78413.69
 429  63749.98
 430  55172.16
 431  59705.99
 432  64921.61
 433  73199.11
 434  67560.63
 435  64088.43
 436  59153.11
 437  68557.49
 438  85016.82
 439  85603.66
 440  84493.12
 441  94472.24
 442  78543.58
 443  81420.5
 444  84448.09
 445  98824.12
 446  103466.6
 447  85069.49
 448  79113.27
 449  86879.8
 450  87581.48
 451  93031.56
 452  86729.03
 453  88473.53
 454  83540.32
 455  84121.91
 456  99289.08
 457  91304.59
 458  95997.02
 459  98445.7
 460  77513.9
 461  66034.21
 462  68608.54
 463  57977.26
 464  64709.95
 465  70826.05
 466  67387.95
 467  74168.91
 468  81908.91
 469  95322.59
 470  80266.69
 471  75727.62
 472  79370.48
 473  76369.15
 474  79117.74
 475  87983.66
 476  92278.32
 477  86089.47
 478  72435.09
 479  71992.35
 480  83989.62
 481  79367.01
 482  85351.85
 483  96519.97
 484  94999.62
 485  81282.72
 486  87335.64
 487  86398.55
 488  77836.08
 489  77701.58
 490  83326.05
 491  85573.19
 492  100750.2
 493  79233.97
 494  74035.24
 495  84632.88
 496  68931.35
 497  61043.26
 498  60336.01
 499  67070.21
 500  70929.98
 501  71484.41
 502  66231.9
 503  77033.44
 504  70761.03
 505  70474.59
 506  76341.37
 507  81364.88
 508  89666.68
 509  65717.34
 510  57625.43
 511  76398.64
