# Input file       =  1212476026.101743_cleaned.dat
# Candidate        =  PSR_0332+5434
# Telescope        =  AR
# Epoch_topo       =  58277.287559047953
# Epoch_bary       =  N/A
# T_sample         =  0.002
# Data Folded      =  7340032
# Data Avg         =  0.131585205091272
# Data StdDev      =  2.94045886429732 
# Profile Bins     =  1024
# Profile Avg      =  943.145343912287 
# Profile StdDev   =  248.951132651076 
# Reduced chi-sqr  =  1.025
# Prob(Noise)      <  0.283   (~0.6 sigma)
# P_topo (ms)      =  714.509889030151  +/- 0.00022
# P'_topo (s/s)    =  -0                +/- 1.16e-10
# P''_topo (s/s^2) =  0                 +/- 5.13e-14
# P_bary (ms)      =  N/A
# P'_bary (s/s)    =  N/A
# P''_bary (s/s^2) =  N/A
# P_orb (s)        =  N/A
# asin(i)/c (s)    =  N/A
# eccentricity     =  N/A
# w (rad)          =  N/A
# T_peri           =  N/A
######################################################
   0  1108.135
   1  1046.561
   2  1023.656
   3  967.5964
   4  1004.765
   5  884.8357
   6  893.6664
   7  916.1368
   8  887.8275
   9  759.167
  10  766.0842
  11  854.8419
  12  894.982
  13  870.6284
  14  878.2065
  15  949.0635
  16  925.4264
  17  849.9819
  18  883.2465
  19  975.8054
  20  1074.012
  21  1026.519
  22  1022.417
  23  943.3851
  24  896.3193
  25  898.998
  26  977.6283
  27  1036.403
  28  1006.777
  29  1029.721
  30  1003.042
  31  936.0621
  32  953.0823
  33  924.056
  34  916.4471
  35  759.9094
  36  753.7529
  37  762.7562
  38  702.9554
  39  681.2115
  40  608.1235
  41  665.2971
  42  701.9177
  43  846.3555
  44  927.1738
  45  940.8799
  46  979.649
  47  993.8668
  48  1068.821
  49  1042.551
  50  1029.034
  51  961.3986
  52  819.0123
  53  832.493
  54  853.9476
  55  888.7709
  56  934.6552
  57  944.4475
  58  956.2966
  59  920.8224
  60  923.8824
  61  888.2191
  62  963.7087
  63  1002.002
  64  1146.43
  65  1116.091
  66  1044.466
  67  918.1457
  68  852.4764
  69  913.9639
  70  861.2313
  71  898.421
  72  916.9944
  73  933.3308
  74  814.6052
  75  786.2652
  76  882.0347
  77  999.2778
  78  1024.206
  79  970.0469
  80  931.6725
  81  868.8125
  82  850.8326
  83  784.7354
  84  834.118
  85  894.5105
  86  860.6635
  87  848.3151
  88  743.7273
  89  769.2921
  90  708.5876
  91  748.9335
  92  751.7817
  93  647.7643
  94  642.0595
  95  643.337
  96  788.7074
  97  818.116
  98  867.3522
  99  842.9224
 100  847.2931
 101  860.2645
 102  913.8234
 103  943.596
 104  918.914
 105  849.0917
 106  727.0842
 107  648.9286
 108  590.5553
 109  673.7264
 110  676.266
 111  736.2681
 112  759.0955
 113  886.7386
 114  903.5236
 115  840.8196
 116  802.4901
 117  802.0842
 118  855.4653
 119  1000.382
 120  975.0062
 121  858.9838
 122  696.699
 123  713.4399
 124  824.4125
 125  815.8944
 126  842.0479
 127  829.9774
 128  913.3347
 129  968.6784
 130  944.2681
 131  996.0522
 132  1012.802
 133  1060.049
 134  1037.295
 135  992.7006
 136  937.8333
 137  927.519
 138  907.7371
 139  883.8431
 140  825.974
 141  914.3708
 142  906.4884
 143  907.293
 144  854.5781
 145  826.5043
 146  883.9189
 147  937.4094
 148  1027.909
 149  1074.554
 150  1129.088
 151  1069.657
 152  940.3508
 153  897.5215
 154  876.8555
 155  869.5159
 156  821.6725
 157  885.8251
 158  907.1392
 159  886.1712
 160  792.5406
 161  778.2986
 162  789.9669
 163  883.4423
 164  981.8885
 165  1043.008
 166  1037.788
 167  939.4477
 168  879.9512
 169  855.7744
 170  823.8783
 171  933.0825
 172  1025.433
 173  1009.783
 174  839.9943
 175  681.5031
 176  699.3768
 177  674.7806
 178  687.7662
 179  762.3232
 180  853.1518
 181  948.4765
 182  944.4896
 183  913.5572
 184  874.507
 185  785.0458
 186  736.1254
 187  750.3123
 188  857.7803
 189  905.5236
 190  798.3589
 191  755.1578
 192  806.6631
 193  874.1733
 194  956.2244
 195  919.0999
 196  1001.098
 197  1053.708
 198  1172.25
 199  1142.19
 200  1126.06
 201  1032.648
 202  1001.028
 203  961.9968
 204  910.1098
 205  833.3462
 206  850.2191
 207  842.4699
 208  781.1752
 209  646.6928
 210  744.0999
 211  922.7006
 212  1112.921
 213  1124.986
 214  1002.073
 215  956.7685
 216  920.504
 217  944.2545
 218  884.3782
 219  876.3728
 220  918.843
 221  954.3399
 222  967.3699
 223  884.3598
 224  777.6794
 225  705.304
 226  715.4749
 227  812.2353
 228  888.662
 229  1045.889
 230  1071.792
 231  1127.484
 232  1088.232
 233  1008.506
 234  882.1168
 235  836.439
 236  933.3865
 237  1037.62
 238  1181.388
 239  1101.27
 240  1008.232
 241  922.4856
 242  939.3499
 243  957.897
 244  946.6688
 245  881.6712
 246  813.1644
 247  869.889
 248  1026.266
 249  1097.169
 250  1015.791
 251  847.3114
 252  785.5204
 253  800.0272
 254  828.6113
 255  772.7336
 256  760.7632
 257  802.6135
 258  878.2242
 259  923.997
 260  919.1496
 261  938.3668
 262  995.129
 263  1117.219
 264  1234.577
 265  1125.752
 266  1013.464
 267  892.3273
 268  888.8084
 269  889.4384
 270  924.0063
 271  1022.723
 272  1066.952
 273  1082.601
 274  932.3591
 275  957.5524
 276  944.944
 277  988.4157
 278  930.4768
 279  977.2804
 280  1034.889
 281  939.0924
 282  987.493
 283  975.2194
 284  1213.012
 285  1188.013
 286  1119.492
 287  976.1603
 288  866.7687
 289  837.8083
 290  835.6547
 291  856.4156
 292  803.1085
 293  755.119
 294  827.0347
 295  945.4622
 296  985.0076
 297  926.3956
 298  902.1935
 299  946.0668
 300  1028.037
 301  1009.819
 302  1040.434
 303  1106.633
 304  1149.866
 305  1101.577
 306  991.3654
 307  1020.852
 308  983.962
 309  1060.328
 310  1087.652
 311  1078.771
 312  956.7089
 313  881.0127
 314  957.1323
 315  1055.612
 316  1036.922
 317  962.942
 318  982.7261
 319  990.2374
 320  976.1339
 321  939.6169
 322  941.7513
 323  993.1274
 324  941.0837
 325  868.7805
 326  853.5696
 327  853.1528
 328  885.0187
 329  813.6871
 330  858.7509
 331  937.9655
 332  991.718
 333  963.2328
 334  857.7393
 335  862.4888
 336  904.063
 337  998.1011
 338  1030.746
 339  934.2475
 340  881.6788
 341  916.7072
 342  1000.423
 343  1057.139
 344  1094.496
 345  1049.767
 346  1021.525
 347  983.9372
 348  977.6442
 349  926.5089
 350  947.0065
 351  1030.862
 352  1058.211
 353  972.5757
 354  862.4845
 355  752.348
 356  797.6577
 357  864.1139
 358  956.8217
 359  907.8029
 360  896.8266
 361  982.2526
 362  974.4824
 363  961.5911
 364  791.5025
 365  818.7794
 366  869.212
 367  983.4474
 368  1135.583
 369  1122.964
 370  1088.959
 371  963.0701
 372  866.4124
 373  795.2102
 374  861.2391
 375  997.7859
 376  1146.542
 377  1066.296
 378  921.3056
 379  767.7535
 380  767.186
 381  836.4182
 382  957.8307
 383  1087.185
 384  1050.376
 385  1080.2
 386  998.4113
 387  895.0329
 388  831.9837
 389  852.1076
 390  938.187
 391  902.8054
 392  963.6719
 393  978.5677
 394  954.9849
 395  924.6677
 396  878.08
 397  900.7236
 398  899.1575
 399  945.7659
 400  882.4402
 401  811.3939
 402  867.95
 403  926.6307
 404  960.1754
 405  766.777
 406  685.6514
 407  683.7566
 408  825.8854
 409  917.1249
 410  967.2141
 411  947.6976
 412  983.7307
 413  893.5493
 414  920.994
 415  859.3636
 416  830.9935
 417  806.073
 418  883.7575
 419  882.5127
 420  835.8475
 421  846.173
 422  931.861
 423  908.2231
 424  833.1262
 425  780.8403
 426  771.248
 427  860.3895
 428  928.1311
 429  859.5701
 430  738.4379
 431  762.1489
 432  808.3372
 433  780.8565
 434  649.3773
 435  729.6747
 436  791.2548
 437  882.4896
 438  882.0367
 439  815.5236
 440  740.3518
 441  562.8099
 442  596.5804
 443  766.111
 444  897.1969
 445  826.2712
 446  690.5945
 447  736.3842
 448  860.9453
 449  749.588
 450  645.705
 451  629.2504
 452  767.6989
 453  807.8978
 454  865.0216
 455  879.9305
 456  916.2165
 457  946.6595
 458  977.0494
 459  825.2313
 460  778.1231
 461  769.6057
 462  847.6196
 463  831.6883
 464  830.7202
 465  944.1942
 466  921.2322
 467  858.5861
 468  787.8998
 469  823.7299
 470  887.1541
 471  832.7316
 472  887.019
 473  805.5561
 474  699.2453
 475  692.1094
 476  887.5971
 477  889.5373
 478  883.348
 479  770.9724
 480  771.0297
 481  763.1678
 482  804.2699
 483  806.8746
 484  808.0731
 485  812.1696
 486  824.4765
 487  830.0061
 488  844.2927
 489  877.6359
 490  861.3149
 491  770.3346
 492  636.5566
 493  646.4911
 494  741.0961
 495  804.4473
 496  781.3627
 497  785.7033
 498  876.9062
 499  902.5507
 500  912.256
 501  859.1879
 502  843.9786
 503  820.8212
 504  839.7145
 505  957.4768
 506  920.8646
 507  895.8856
 508  887.4454
 509  920.457
 510  861.7839
 511  729.5096
 512  758.5904
 513  883.4612
 514  948.5067
 515  909.0046
 516  769.94
 517  716.1394
 518  751.7227
 519  830.9178
 520  961.1938
 521  986.9161
 522  930.3699
 523  831.6861
 524  861.8568
 525  834.9191
 526  775.8668
 527  798.9797
 528  890.5286
 529  951.3828
 530  874.9017
 531  956.8549
 532  963.4374
 533  1013.448
 534  984.5448
 535  892.2939
 536  846.1194
 537  777.1423
 538  763.8505
 539  782.4144
 540  889.275
 541  963.439
 542  964.8797
 543  920.5557
 544  948.8911
 545  976.3075
 546  1028.729
 547  1002.803
 548  1022.975
 549  991.4355
 550  1066.897
 551  1050.168
 552  974.4125
 553  802.8701
 554  757.6866
 555  786.9605
 556  871.6834
 557  890.6871
 558  932.0573
 559  922.2379
 560  982.833
 561  1064.496
 562  1023.993
 563  988.5397
 564  808.7178
 565  842.375
 566  882.3681
 567  964.462
 568  980.5696
 569  936.0542
 570  960.4597
 571  966.7808
 572  1110.56
 573  1034.879
 574  904.1832
 575  796.6263
 576  863.6613
 577  944.6465
 578  985.792
 579  932.4379
 580  905.2792
 581  814.782
 582  894.1993
 583  921.3206
 584  1057.92
 585  1032.628
 586  1086.244
 587  1108.778
 588  1156.585
 589  1141.88
 590  1164.455
 591  1190.792
 592  1280.86
 593  1404.572
 594  1481.831
 595  1615.759
 596  1787.317
 597  1976.616
 598  2067.47
 599  1888.976
 600  1729.661
 601  1568.393
 602  1527.026
 603  1394.275
 604  1285.618
 605  1165.597
 606  954.4056
 607  858.5786
 608  927.0522
 609  995.2002
 610  1023.501
 611  916.652
 612  871.5307
 613  845.1183
 614  872.0494
 615  929.8583
 616  1022.617
 617  1082.386
 618  923.2791
 619  888.7942
 620  915.6287
 621  949.6373
 622  913.8204
 623  937.6074
 624  972.7956
 625  922.8041
 626  782.5853
 627  818.5094
 628  949.9432
 629  1075.302
 630  1033.43
 631  952.2034
 632  933.1551
 633  972.5012
 634  956.9846
 635  967.8167
 636  1067.922
 637  1168.546
 638  1178.457
 639  1051.389
 640  895.1827
 641  874.2719
 642  803.8087
 643  859.7541
 644  775.579
 645  828.8895
 646  780.4867
 647  847.8901
 648  845.6599
 649  917.9371
 650  937.2937
 651  1023.859
 652  1037.36
 653  1020.907
 654  911.0349
 655  922.2255
 656  1009.341
 657  1136.327
 658  1157.006
 659  1031.508
 660  987.8868
 661  986.6901
 662  1010.804
 663  1009.853
 664  922.6289
 665  869.876
 666  814.4003
 667  913.1132
 668  1024.967
 669  1035.516
 670  1009.6
 671  1013.324
 672  1009.69
 673  924.5591
 674  814.0275
 675  829.8041
 676  887.4998
 677  959.1188
 678  1059.312
 679  1123.753
 680  1089.922
 681  967.2056
 682  830.9012
 683  901.3729
 684  914.2332
 685  922.4543
 686  805.365
 687  937.3568
 688  1023.494
 689  1036.462
 690  963.9732
 691  898.8125
 692  862.6249
 693  859.5185
 694  900.3134
 695  942.1486
 696  1017.465
 697  1023.188
 698  1009.102
 699  1036.19
 700  1004.953
 701  1040.733
 702  948.8595
 703  976.8696
 704  1032.947
 705  1098.287
 706  1103.718
 707  934.8132
 708  815.9611
 709  693.0052
 710  696.109
 711  675.1245
 712  815.5011
 713  943.091
 714  1075.744
 715  1042.435
 716  1131.953
 717  1148.206
 718  1174.95
 719  1092.651
 720  1117.288
 721  1153.537
 722  1156.741
 723  1071.835
 724  990.7126
 725  968.894
 726  991.2014
 727  906.9124
 728  877.948
 729  916.7244
 730  968.9771
 731  1006.26
 732  1031.595
 733  1014.507
 734  998.4978
 735  968.8041
 736  954.2875
 737  882.9951
 738  856.3914
 739  865.623
 740  917.8314
 741  994.759
 742  1004.983
 743  889.5928
 744  823.5937
 745  876.3121
 746  935.6216
 747  920.1704
 748  947.0126
 749  1005.494
 750  1059.896
 751  1052.607
 752  988.7084
 753  893.1375
 754  943.5524
 755  1020.023
 756  1035.188
 757  960.6373
 758  855.4108
 759  794.9946
 760  855.6581
 761  1041.378
 762  1065.953
 763  990.6808
 764  907.6215
 765  1019.591
 766  957.6694
 767  941.1894
 768  907.4321
 769  908.578
 770  880.0457
 771  903.6855
 772  1025.412
 773  1049.458
 774  1089.284
 775  1036.91
 776  950.7218
 777  965.7407
 778  959.7627
 779  960.6276
 780  858.5933
 781  936.0513
 782  963.5733
 783  974.1743
 784  902.7979
 785  883.587
 786  941.934
 787  927.2626
 788  1016.152
 789  989.9792
 790  937.1946
 791  904.5437
 792  850.8312
 793  836.1716
 794  826.3638
 795  949.9739
 796  1043.411
 797  1023.21
 798  1014.951
 799  1012.66
 800  1045.949
 801  1058.609
 802  1062.693
 803  1025.791
 804  911.2381
 805  855.3796
 806  883.364
 807  1007.388
 808  1058.063
 809  1049.57
 810  1034.695
 811  1090.63
 812  1087.222
 813  1044.479
 814  914.946
 815  1001.66
 816  1105.884
 817  1110.654
 818  948.8188
 819  774.5571
 820  774.8927
 821  854.7407
 822  943.5499
 823  985.8977
 824  1002.222
 825  1065.036
 826  1081.509
 827  975.4702
 828  884.3836
 829  904.0728
 830  1003.561
 831  1042.518
 832  992.1213
 833  908.6705
 834  880.3195
 835  921.223
 836  993.2476
 837  932.5754
 838  932.2281
 839  890.0084
 840  903.2958
 841  855.1942
 842  837.7055
 843  861.2757
 844  967.3934
 845  1043.426
 846  1082.094
 847  991.2882
 848  958.5739
 849  966.6216
 850  990.0267
 851  980.4296
 852  1009.351
 853  1008.59
 854  1053.477
 855  1008.394
 856  1003.797
 857  992.6155
 858  1008.058
 859  957.4831
 860  877.4349
 861  938.085
 862  1035.298
 863  1025.398
 864  952.2878
 865  946.8217
 866  974.8603
 867  905.8679
 868  907.5027
 869  988.2949
 870  1048.023
 871  964.0746
 872  939.6838
 873  875.3843
 874  920.227
 875  913.8883
 876  911.8602
 877  944.0746
 878  969.7889
 879  1024.064
 880  998.5983
 881  990.072
 882  921.0069
 883  984.1174
 884  1128.344
 885  1116.056
 886  985.3788
 887  986.7938
 888  1043.491
 889  1145.912
 890  1127.81
 891  1193.173
 892  1119.921
 893  1147.906
 894  1139.334
 895  1081.563
 896  1025.509
 897  1071.558
 898  1092.66
 899  981.5048
 900  895.2944
 901  881.7039
 902  850.5712
 903  876.4267
 904  944.7952
 905  980.1768
 906  862.2758
 907  813.5068
 908  842.116
 909  817.8355
 910  767.2911
 911  679.3887
 912  805.9667
 913  885.3003
 914  906.2231
 915  904.2842
 916  874.5169
 917  914.4438
 918  944.1921
 919  1039.384
 920  1082.17
 921  1021.609
 922  930.3911
 923  832.5148
 924  867.0764
 925  835.7621
 926  984.9168
 927  1020.381
 928  1036.691
 929  998.0274
 930  1068.625
 931  1003.124
 932  970.2095
 933  927.4115
 934  958.2534
 935  870.907
 936  864.7101
 937  1006.139
 938  1103.286
 939  1100.037
 940  1087.812
 941  1093.464
 942  1021.402
 943  922.5897
 944  987.9385
 945  1037.094
 946  1052.413
 947  1022.444
 948  1105.171
 949  1070.671
 950  1021.309
 951  798.5502
 952  840.7913
 953  789.442
 954  1015.736
 955  1082.966
 956  1182.273
 957  1005.621
 958  962.4984
 959  974.6436
 960  1031.465
 961  1093.599
 962  1110.436
 963  1114.672
 964  1034.243
 965  1037.692
 966  1059.926
 967  1065.781
 968  1090.46
 969  1021.956
 970  1046.936
 971  1042.519
 972  1085.26
 973  1053.108
 974  1045.12
 975  1057.653
 976  1092.613
 977  1128.714
 978  1115.631
 979  1114.573
 980  1077.621
 981  1054.163
 982  1016.565
 983  1050.607
 984  1151.15
 985  1207.952
 986  1160.664
 987  1073.28
 988  1114.32
 989  1166.651
 990  1240.962
 991  1126.519
 992  1084.807
 993  1013.018
 994  911.2964
 995  937.1086
 996  933.0046
 997  1016.752
 998  1070.329
 999  1070.821
1000  1101.736
1001  1081.572
1002  1058.959
1003  1066.307
1004  1098.227
1005  1144.456
1006  1131.867
1007  1115.616
1008  1055.725
1009  1112.883
1010  1157.669
1011  1249.592
1012  1133.832
1013  978.3474
1014  781.658
1015  768.2882
1016  936.6145
1017  1095.469
1018  1128.333
1019  1019.763
1020  1005.896
1021  1017.341
1022  1037.915
1023  1051.19
