# Input file       =  1212404813.114432_cleaned.dat
# Candidate        =  PSR_0332+5434
# Telescope        =  AR
# Epoch_topo       =  58276.463334657776
# Epoch_bary       =  N/A
# T_sample         =  0.002
# Data Folded      =  7340032
# Data Avg         =  0.0298281549819096
# Data StdDev      =  2.35398068982599 
# Profile Bins     =  1024
# Profile Avg      =  213.811644120007 
# Profile StdDev   =  199.297519882491 
# Reduced chi-sqr  =  1.649
# Prob(Noise)      <  2.12e-35   (~12.4 sigma)
# P_topo (ms)      =  714.511016018087  +/- 0.000207
# P'_topo (s/s)    =  -0                +/- 1.09e-10
# P''_topo (s/s^2) =  0                 +/- 4.82e-14
# P_bary (ms)      =  N/A
# P'_bary (s/s)    =  N/A
# P''_bary (s/s^2) =  N/A
# P_orb (s)        =  N/A
# asin(i)/c (s)    =  N/A
# eccentricity     =  N/A
# w (rad)          =  N/A
# T_peri           =  N/A
######################################################
   0  237.2503
   1  307.3878
   2  361.3955
   3  351.3972
   4  247.871
   5  185.8597
   6  115.4521
   7  159.3299
   8  151.7466
   9  174.331
  10  188.7551
  11  88.07497
  12  63.67651
  13  74.72236
  14  207.8603
  15  239.1785
  16  206.2832
  17  232.7805
  18  266.0428
  19  236.589
  20  210.2397
  21  286.0584
  22  378.3091
  23  365.8265
  24  302.6532
  25  189.1487
  26  126.8132
  27  123.0938
  28  136.876
  29  105.8234
  30  135.4587
  31  195.796
  32  249.8373
  33  270.3664
  34  231.0737
  35  188.8273
  36  178.5894
  37  219.5143
  38  318.3657
  39  353.4143
  40  344.6485
  41  223.9248
  42  114.9572
  43  69.40873
  44  75.41499
  45  171.2469
  46  199.9346
  47  228.5221
  48  198.7799
  49  117.6153
  50  -1.311413
  51  -10.52242
  52  58.32457
  53  134.3477
  54  125.9357
  55  88.70014
  56  84.36199
  57  20.26852
  58  63.81105
  59  50.49424
  60  116.5966
  61  171.556
  62  224.2902
  63  220.1905
  64  253.4758
  65  257.1884
  66  275.536
  67  276.329
  68  190.5896
  69  116.0729
  70  104.4485
  71  271.5728
  72  424.3009
  73  361.6403
  74  228.5806
  75  98.65411
  76  144.1172
  77  159.927
  78  149.511
  79  73.46727
  80  47.05802
  81  86.74837
  82  152.7313
  83  171.5011
  84  178.3213
  85  256.8878
  86  304.053
  87  333.0407
  88  271.1797
  89  148.9675
  90  76.24432
  91  16.56294
  92  -7.295194
  93  70.36028
  94  231.1336
  95  224.8627
  96  146.5875
  97  128.4982
  98  163.2095
  99  158.8613
 100  230.5635
 101  169.4308
 102  152.6642
 103  74.53917
 104  211.2103
 105  218.6743
 106  190.7755
 107  150.9159
 108  184.5854
 109  200.166
 110  207.1111
 111  155.1721
 112  224.0541
 113  205.5847
 114  213.7015
 115  197.7955
 116  252.3006
 117  376.0222
 118  457.306
 119  336.812
 120  273.0179
 121  151.6318
 122  266.2567
 123  258.6675
 124  251.2463
 125  187.0802
 126  192.2961
 127  176.4984
 128  101.6256
 129  63.73064
 130  -43.35335
 131  -25.48298
 132  86.42348
 133  360.1649
 134  389.8132
 135  354.6147
 136  299.6571
 137  197.0322
 138  71.95676
 139  -0.3426121
 140  -14.36432
 141  64.12647
 142  105.7973
 143  240.3936
 144  267.7871
 145  347.1624
 146  294.8452
 147  256.4183
 148  227.8048
 149  250.3065
 150  107.5783
 151  44.87451
 152  27.63808
 153  239.2847
 154  287.557
 155  337.9749
 156  251.0045
 157  274.5161
 158  297.8499
 159  205.6092
 160  106.2966
 161  23.77051
 162  84.82156
 163  59.73281
 164  41.53548
 165  29.68946
 166  42.98919
 167  156.1419
 168  245.1668
 169  404.3549
 170  297.9435
 171  254.345
 172  115.6997
 173  182.194
 174  191.1383
 175  225.7909
 176  177.6671
 177  134.2169
 178  162.0683
 179  114.3347
 180  98.15381
 181  83.75179
 182  209.0195
 183  253.8863
 184  304.6099
 185  187.8694
 186  148.6828
 187  114.8485
 188  215.3498
 189  182.5566
 190  225.8587
 191  228.0688
 192  289.9861
 193  162.6048
 194  236.966
 195  261.7655
 196  326.2087
 197  125.0134
 198  86.39037
 199  170.7955
 200  273.8516
 201  296.1824
 202  210.3818
 203  231.1442
 204  302.3603
 205  301.0815
 206  264.459
 207  149.6697
 208  84.00689
 209  48.45335
 210  83.05304
 211  148.2122
 212  209.2952
 213  280.4874
 214  319.0934
 215  295.2267
 216  175.5025
 217  147.1944
 218  146.0357
 219  182.491
 220  212.9254
 221  284.6222
 222  260.9853
 223  262.8361
 224  224.7265
 225  302.8847
 226  214.9537
 227  181.6307
 228  23.7335
 229  -12.90597
 230  -9.026196
 231  41.25475
 232  43.00992
 233  79.22385
 234  62.62848
 235  186.6947
 236  341.1838
 237  347.3845
 238  273.4422
 239  187.9133
 240  143.9572
 241  70.24133
 242  -1.269812
 243  40.74254
 244  95.62033
 245  191.0171
 246  206.5242
 247  195.2602
 248  201.6639
 249  292.4716
 250  343.1841
 251  447.5606
 252  427.1625
 253  314.4914
 254  243.8631
 255  157.4474
 256  234.1486
 257  120.568
 258  164.4407
 259  260.966
 260  349.3083
 261  272.9417
 262  143.3386
 263  169.4075
 264  243.775
 265  217.0341
 266  224.2885
 267  254.9039
 268  235.739
 269  135.3209
 270  104.7232
 271  205.6249
 272  257.3013
 273  301.8677
 274  394.0934
 275  446.836
 276  470.8314
 277  440.8738
 278  385.4163
 279  269.3547
 280  261.1482
 281  279.5755
 282  329.0811
 283  272.4255
 284  219.7244
 285  224.1561
 286  298.8116
 287  278.2261
 288  260.5763
 289  270.3407
 290  321.0581
 291  374.277
 292  277.3542
 293  312.0072
 294  245.2776
 295  244.2944
 296  209.8913
 297  243.6505
 298  230.6694
 299  177.0253
 300  179.2986
 301  166.1826
 302  247.8204
 303  178.8622
 304  220.3554
 305  162.1937
 306  193.6488
 307  161.307
 308  135.0646
 309  155.5188
 310  147.0078
 311  101.8117
 312  143.2282
 313  187.6193
 314  216.2731
 315  233.4155
 316  243.8068
 317  274.3124
 318  268.874
 319  298.25
 320  341.1889
 321  270.0144
 322  298.3803
 323  352.8506
 324  445.6075
 325  310.2719
 326  167.0865
 327  102.5737
 328  143.6079
 329  84.42438
 330  1.581199
 331  -13.58747
 332  46.47821
 333  84.10118
 334  -43.82494
 335  -20.78745
 336  16.65774
 337  166.292
 338  201.2087
 339  156.3687
 340  85.97377
 341  77.87245
 342  94.93163
 343  87.02719
 344  5.974148
 345  2.076858
 346  81.37206
 347  177.8071
 348  185.4989
 349  271.0801
 350  265.0245
 351  228.7771
 352  124.7422
 353  76.10297
 354  75.9147
 355  85.036
 356  176.0771
 357  180.9271
 358  194.1487
 359  186.8253
 360  239.024
 361  323.332
 362  321.3725
 363  247.1395
 364  127.5413
 365  166.6576
 366  209.1042
 367  291.8424
 368  256.6668
 369  233.6066
 370  221.4485
 371  216.5889
 372  159.5204
 373  130.1546
 374  204.5277
 375  312.23
 376  331.2474
 377  262.5287
 378  324.0068
 379  378.0543
 380  426.5353
 381  253.5715
 382  168.7211
 383  154.4755
 384  225.8377
 385  235.2672
 386  169.3531
 387  191.0618
 388  173.2355
 389  64.89554
 390  12.69001
 391  46.37073
 392  95.24355
 393  166.3879
 394  190.7703
 395  170.5108
 396  121.0938
 397  56.571
 398  51.97611
 399  -5.992433
 400  27.05166
 401  51.03084
 402  31.7053
 403  -37.63049
 404  -64.7224
 405  -57.85132
 406  52.56189
 407  123.3915
 408  122.8776
 409  41.46516
 410  42.03606
 411  99.76829
 412  117.0287
 413  123.8593
 414  80.08017
 415  71.11833
 416  95.33611
 417  193.7041
 418  129.0202
 419  -3.684567
 420  -86.7313
 421  25.43023
 422  212.309
 423  340.4274
 424  235.4091
 425  14.26459
 426  -96.67764
 427  -107.2697
 428  -40.88554
 429  -4.976524
 430  45.85086
 431  133.4699
 432  187.6977
 433  234.9619
 434  192.0566
 435  195.2816
 436  211.09
 437  262.3742
 438  230.7908
 439  227.4359
 440  221.5919
 441  260.0669
 442  207.2759
 443  286.1265
 444  299.5537
 445  312.5529
 446  237.0338
 447  126.4588
 448  7.294286
 449  -28.42645
 450  23.48201
 451  81.52558
 452  123.6295
 453  115.9417
 454  136.9103
 455  190.1797
 456  263.5249
 457  301.0242
 458  257.6876
 459  183.1117
 460  109.1414
 461  149.9652
 462  160.6621
 463  155.1748
 464  86.74094
 465  123.6042
 466  154.0388
 467  170.283
 468  202.533
 469  169.0003
 470  204.2426
 471  100.3128
 472  54.85282
 473  78.36183
 474  131.9314
 475  164.667
 476  107.2324
 477  76.51952
 478  72.07426
 479  83.05679
 480  114.025
 481  32.33596
 482  -43.323
 483  -80.19198
 484  70.97565
 485  141.106
 486  180.4048
 487  113.835
 488  -22.42329
 489  -30.53669
 490  10.33264
 491  204.7239
 492  215.9486
 493  217.6264
 494  246.908
 495  357.9749
 496  379.4336
 497  360.2839
 498  241.5448
 499  185.8907
 500  118.1121
 501  120.7158
 502  56.68103
 503  28.88187
 504  76.60257
 505  120.5743
 506  192.1537
 507  117.8208
 508  199.5636
 509  89.03818
 510  50.69938
 511  23.35701
 512  65.8895
 513  131.7538
 514  116.01
 515  210.299
 516  207.8646
 517  125.9367
 518  147.9572
 519  167.7933
 520  218.3362
 521  211.8449
 522  199.865
 523  207.2059
 524  228.8012
 525  155.3654
 526  32.64026
 527  -3.786726
 528  107.8235
 529  230.8613
 530  189.7009
 531  54.65138
 532  76.58804
 533  240.5636
 534  383.0345
 535  277.8263
 536  209.2017
 537  108.8098
 538  230.7418
 539  305.6458
 540  279.681
 541  142.6391
 542  66.77917
 543  71.49309
 544  75.00268
 545  38.1423
 546  14.01374
 547  -86.01386
 548  67.70325
 549  290.0294
 550  476.1635
 551  358.646
 552  171.3247
 553  227.5538
 554  310.3638
 555  411.9269
 556  377.3565
 557  337.0725
 558  219.3138
 559  98.17278
 560  161.1684
 561  175.1599
 562  112.4727
 563  29.77492
 564  133.969
 565  288.5329
 566  305.8272
 567  209.3044
 568  131.1343
 569  182.2147
 570  284.4517
 571  311.1136
 572  213.8672
 573  160.9918
 574  174.9769
 575  190.9075
 576  185.6783
 577  134.1921
 578  98.33475
 579  111.5967
 580  187.1176
 581  286.1113
 582  325.4129
 583  427.5284
 584  382.1957
 585  455.3277
 586  384.2882
 587  537.7927
 588  555.3764
 589  668.9285
 590  592.4446
 591  661.3559
 592  751.5046
 593  908.3026
 594  1136.076
 595  1157.023
 596  1189.164
 597  1195.716
 598  1186.629
 599  1103.665
 600  937.0676
 601  979.5366
 602  876.9373
 603  761.6136
 604  528.8202
 605  382.9496
 606  347.0124
 607  383.8513
 608  489.2987
 609  456.069
 610  309.7496
 611  203.2684
 612  277.7805
 613  345.6021
 614  295.3013
 615  264.2259
 616  295.0241
 617  277.3363
 618  295.6075
 619  339.9398
 620  421.7911
 621  506.1997
 622  534.0255
 623  463.2618
 624  318.3676
 625  260.5252
 626  269.5693
 627  287.5852
 628  363.0411
 629  358.898
 630  355.1992
 631  270.2524
 632  281.7032
 633  217.721
 634  192.9804
 635  217.0147
 636  283.4436
 637  394.6894
 638  303.7715
 639  306.9405
 640  230.2145
 641  194.7435
 642  88.74989
 643  78.05158
 644  138.4142
 645  269.8758
 646  259.0368
 647  293.7963
 648  245.2845
 649  300.4872
 650  252.739
 651  209.9339
 652  194.8838
 653  155.3629
 654  153.3307
 655  241.5186
 656  306.1431
 657  282.061
 658  182.0525
 659  100.3382
 660  86.06566
 661  151.1014
 662  238.6261
 663  262.7897
 664  171.4973
 665  89.52178
 666  86.5499
 667  90.50554
 668  214.3316
 669  253.2358
 670  249.441
 671  164.3986
 672  142.3824
 673  139.1501
 674  47.67475
 675  36.22459
 676  105.2357
 677  161.6665
 678  153.5265
 679  247.4433
 680  211.8587
 681  303.5047
 682  234.3655
 683  219.23
 684  187.3892
 685  282.9951
 686  357.9435
 687  294.3971
 688  295.1215
 689  242.8672
 690  204.2882
 691  127.3605
 692  158.2514
 693  243.7833
 694  289.1175
 695  323.669
 696  251.1482
 697  201.7828
 698  196.2959
 699  185.6012
 700  182.8885
 701  211.8646
 702  215.1365
 703  158.2982
 704  198.696
 705  238.6497
 706  257.6508
 707  138.6655
 708  130.8271
 709  254.4648
 710  380.7585
 711  372.774
 712  349.9493
 713  268.0042
 714  259.5232
 715  194.1615
 716  200.772
 717  260.5193
 718  314.7014
 719  357.643
 720  352.2305
 721  292.851
 722  293.5591
 723  293.489
 724  328.6684
 725  305.8647
 726  237.786
 727  119.5581
 728  31.05143
 729  59.76015
 730  214.1785
 731  267.1454
 732  227.7106
 733  133.6108
 734  94.06547
 735  223.3751
 736  298.7941
 737  377.9223
 738  314.6593
 739  313.1521
 740  290.4721
 741  282.6445
 742  288.3775
 743  258.925
 744  239.1762
 745  182.389
 746  198.8208
 747  169.0599
 748  149.924
 749  189.3561
 750  281.9806
 751  362.7474
 752  292.8298
 753  220.1779
 754  275.4539
 755  266.3695
 756  208.4085
 757  18.63032
 758  -18.12041
 759  14.29491
 760  81.73515
 761  247.8073
 762  269.0741
 763  274.2717
 764  198.4185
 765  198.0687
 766  290.3971
 767  178.9798
 768  49.33818
 769  -43.11656
 770  -9.272453
 771  85.74699
 772  148.507
 773  190.4775
 774  288.9031
 775  357.05
 776  415.8647
 777  406.7315
 778  308.9769
 779  242.3325
 780  135.3791
 781  236.1882
 782  278.2534
 783  232.3882
 784  235.835
 785  166.8528
 786  219.5463
 787  183.0485
 788  208.8188
 789  199.5122
 790  172.2607
 791  267.3356
 792  374.1494
 793  416.3157
 794  258.0002
 795  152.0357
 796  96.61774
 797  153.2163
 798  114.8665
 799  81.76244
 800  115.1079
 801  124.4362
 802  268.1952
 803  347.4943
 804  416.3132
 805  209.4634
 806  -18.32221
 807  -127.1511
 808  -55.99319
 809  90.52517
 810  169.7565
 811  186.9714
 812  131.5567
 813  153.5367
 814  161.5345
 815  170.073
 816  183.9915
 817  232.1015
 818  246.2684
 819  188.2175
 820  50.06363
 821  -30.34603
 822  -19.85319
 823  87.03873
 824  108.4906
 825  157.8396
 826  212.0674
 827  249.1879
 828  183.8678
 829  86.67131
 830  69.75766
 831  141.4173
 832  161.6472
 833  179.9118
 834  214.4465
 835  326.5674
 836  411.5613
 837  398.1043
 838  302.8481
 839  197.9654
 840  236.7437
 841  347.4579
 842  460.1271
 843  464.9225
 844  351.7492
 845  326.3609
 846  274.7229
 847  235.9393
 848  196.7069
 849  173.7357
 850  253.2527
 851  333.8643
 852  331.9658
 853  280.131
 854  253.8808
 855  263.5627
 856  198.2384
 857  194.2676
 858  258.1841
 859  320.483
 860  329.235
 861  299.7797
 862  280.3832
 863  288.3696
 864  325.0212
 865  298.8045
 866  310.061
 867  301.9355
 868  302.4671
 869  324.7574
 870  293.3623
 871  185.9594
 872  81.77074
 873  182.9335
 874  313.6486
 875  407.3497
 876  349.3203
 877  264.2384
 878  177.8916
 879  168.737
 880  254.8509
 881  290.159
 882  353.0988
 883  383.2164
 884  380.693
 885  320.6274
 886  258.1199
 887  229.4171
 888  257.0234
 889  222.5641
 890  191.5681
 891  217.7997
 892  285.4842
 893  257.4676
 894  160.537
 895  85.51551
 896  127.3299
 897  302.7221
 898  434.6866
 899  485.0529
 900  420.825
 901  353.8917
 902  214.9199
 903  130.1622
 904  78.73757
 905  106.0134
 906  136.5081
 907  198.7113
 908  245.3698
 909  282.3794
 910  219.8451
 911  267.008
 912  214.4019
 913  176.0512
 914  107.6825
 915  129.4346
 916  199.1094
 917  172.9794
 918  269.6414
 919  323.7542
 920  355.2493
 921  281.4821
 922  282.6463
 923  300.8358
 924  326.6919
 925  327.0865
 926  277.5159
 927  287.2449
 928  331.9844
 929  328.8057
 930  295.5899
 931  273.1667
 932  260.3146
 933  100.0117
 934  49.5992
 935  80.90449
 936  216.9223
 937  240.052
 938  342.3277
 939  367.9798
 940  293.6409
 941  208.2173
 942  203.8626
 943  260.7433
 944  256.1711
 945  200.3564
 946  184.9249
 947  188.7188
 948  140.6351
 949  44.53256
 950  37.6076
 951  137.0907
 952  246.1512
 953  268.0912
 954  274.0575
 955  259.6989
 956  279.9263
 957  313.1121
 958  275.7609
 959  229.4024
 960  199.6103
 961  281.4256
 962  305.7577
 963  307.0378
 964  148.8876
 965  125.1585
 966  120.7323
 967  204.3493
 968  194.7659
 969  213.7729
 970  265.3845
 971  302.2277
 972  330.5204
 973  333.542
 974  217.3503
 975  97.48244
 976  92.99299
 977  231.1984
 978  326.3324
 979  318.818
 980  268.5358
 981  202.8285
 982  140.7684
 983  190.3731
 984  219.2278
 985  268.3155
 986  245.371
 987  170.4378
 988  81.96937
 989  60.78896
 990  62.89837
 991  95.05148
 992  102.7335
 993  218.3681
 994  308.4728
 995  385.8408
 996  392.3253
 997  390.2281
 998  343.9514
 999  252.592
1000  87.43932
1001  24.79047
1002  11.67847
1003  125.6025
1004  125.5757
1005  133.9023
1006  179.5379
1007  307.8693
1008  400.9117
1009  376.3336
1010  258.9174
1011  210.9849
1012  250.6976
1013  252.3464
1014  169.5838
1015  179.1815
1016  218.6744
1017  252.2347
1018  121.5452
1019  144.4266
1020  156.4889
1021  215.4035
1022  194.5466
1023  184.4503
