# Input file       =  1212217597.124563_cleaned.dat
# Candidate        =  PSR_0332+5434
# Telescope        =  AR
# Epoch_topo       =  58274.296482923186
# Epoch_bary       =  N/A
# T_sample         =  0.002
# Data Folded      =  7340032
# Data Avg         =  0.0407591535012902
# Data StdDev      =  1.00003300466384 
# Profile Bins     =  512
# Profile Avg      =  584.66819769734  
# Profile StdDev   =  119.736988125382 
# Reduced chi-sqr  =  1.572
# Prob(Noise)      <  2.29e-15   (~7.8 sigma)
# P_topo (ms)      =  714.512772883041  +/- 0.000406
# P'_topo (s/s)    =  -0                +/- 2.14e-10
# P''_topo (s/s^2) =  0                 +/- 9.46e-14
# P_bary (ms)      =  N/A
# P'_bary (s/s)    =  N/A
# P''_bary (s/s^2) =  N/A
# P_orb (s)        =  N/A
# asin(i)/c (s)    =  N/A
# eccentricity     =  N/A
# w (rad)          =  N/A
# T_peri           =  N/A
######################################################
   0  541.9956
   1  584.2274
   2  692.4126
   3  647.5262
   4  576.5972
   5  629.1913
   6  616.3309
   7  507.7707
   8  536.7192
   9  627.6791
  10  592.8595
  11  571.2414
  12  631.9041
  13  633.3811
  14  640.3523
  15  692.0215
  16  592.5499
  17  648.8002
  18  679.4199
  19  593.296
  20  562.902
  21  509.091
  22  617.3331
  23  620.9939
  24  574.1738
  25  631.8665
  26  590.4632
  27  717.702
  28  638.1151
  29  637.9582
  30  668.7758
  31  666.9836
  32  648.299
  33  663.7909
  34  611.6172
  35  521.7015
  36  519.3464
  37  504.2076
  38  434.0894
  39  549.696
  40  637.1036
  41  646.2803
  42  656.2271
  43  610.6436
  44  626.274
  45  659.4224
  46  590.9412
  47  511.2294
  48  621.912
  49  637.4523
  50  609.1693
  51  649.4309
  52  669.6732
  53  623.3149
  54  562.895
  55  605.2793
  56  720.5276
  57  685.7775
  58  664.78
  59  673.2462
  60  822.581
  61  661.4747
  62  593.8284
  63  685.4897
  64  644.903
  65  631.2608
  66  584.0406
  67  572.1593
  68  595.8122
  69  525.6093
  70  604.8516
  71  612.5339
  72  615.2763
  73  615.7303
  74  630.4817
  75  600.0502
  76  644.8709
  77  657.8425
  78  660.6221
  79  662.6592
  80  721.57
  81  526.6943
  82  594.493
  83  620.6966
  84  553.5715
  85  523.0709
  86  614.9619
  87  664.4017
  88  709.1303
  89  619.8175
  90  497.5779
  91  565.3328
  92  572.6994
  93  681.6298
  94  587.6068
  95  564.6368
  96  528.6972
  97  433.2607
  98  465.563
  99  536.5613
 100  623.228
 101  726.6847
 102  679.9561
 103  545.4807
 104  597.837
 105  554.7896
 106  458.1063
 107  455.6761
 108  454.1805
 109  464.3849
 110  583.0812
 111  528.0126
 112  559.7463
 113  569.1412
 114  477.3712
 115  427.441
 116  343.3348
 117  468.3746
 118  461.7885
 119  515.8903
 120  530.0521
 121  622.8041
 122  562.6204
 123  645.0858
 124  554.4012
 125  466.3636
 126  551.8244
 127  520.911
 128  491.4174
 129  565.8401
 130  584.4247
 131  659.8976
 132  647.5003
 133  611.212
 134  545.4292
 135  514.8875
 136  511.7789
 137  573.6606
 138  516.2458
 139  552.0059
 140  446.7172
 141  503.3412
 142  604.3554
 143  534.9601
 144  550.7316
 145  554.3197
 146  539.3832
 147  523.1048
 148  449.5029
 149  478.1262
 150  580.4947
 151  580.46
 152  556.5183
 153  464.0264
 154  404.0861
 155  413.9392
 156  416.9045
 157  367.5406
 158  427.1868
 159  512.1002
 160  501.7256
 161  633.5603
 162  587.1983
 163  570.8226
 164  533.709
 165  404.8589
 166  363.024
 167  311.6831
 168  438.6752
 169  552.762
 170  550.7487
 171  498.9055
 172  513.0281
 173  509.0841
 174  474.8935
 175  476.3437
 176  398.2528
 177  456.6771
 178  437.809
 179  412.4545
 180  404.0234
 181  399.7372
 182  482.8394
 183  504.2246
 184  629.6818
 185  493.0933
 186  384.9902
 187  413.2897
 188  516.9852
 189  544.5309
 190  478.7386
 191  527.624
 192  547.9812
 193  468.3647
 194  490.7066
 195  508.7595
 196  590.1295
 197  586.8876
 198  441.2121
 199  500.2645
 200  513.3257
 201  410.7241
 202  431.9456
 203  394.37
 204  506.7728
 205  531.5634
 206  399.4501
 207  389.7533
 208  386.3952
 209  526.8298
 210  636.3931
 211  529.8067
 212  535.4691
 213  594.5438
 214  456.2363
 215  388.2482
 216  443.6323
 217  520.2017
 218  451.8416
 219  455.9718
 220  428.0118
 221  368.1668
 222  333.7558
 223  319.0049
 224  360.2667
 225  526.8574
 226  525.3948
 227  472.9257
 228  429.551
 229  383.6197
 230  374.0025
 231  431.3775
 232  545.7065
 233  514.7627
 234  485.0818
 235  495.874
 236  466.925
 237  365.0351
 238  369.9597
 239  331.6835
 240  310.2469
 241  434.2237
 242  521.6084
 243  453.215
 244  556.3793
 245  598.597
 246  524.1665
 247  453.2758
 248  394.0675
 249  456.1066
 250  555.3447
 251  512.6506
 252  469.0779
 253  473.018
 254  540.3444
 255  534.9382
 256  397.5085
 257  399.4376
 258  465.7787
 259  516.5217
 260  359.1388
 261  289.1671
 262  475.7766
 263  552.4183
 264  593.1274
 265  522.1355
 266  431.9117
 267  406.6607
 268  581.8659
 269  658.8419
 270  572.1475
 271  709.5637
 272  863.5507
 273  1000.392
 274  1119.786
 275  1103.216
 276  1028.88
 277  743.8657
 278  597.0786
 279  647.7109
 280  657.1077
 281  575.3661
 282  550.9988
 283  440.5327
 284  541.6186
 285  559.9126
 286  493.3534
 287  583.8892
 288  700.1835
 289  662.756
 290  617.0441
 291  571.4332
 292  596.4019
 293  570.018
 294  656.3972
 295  589.0917
 296  544.6484
 297  588.8583
 298  568.9067
 299  491.0264
 300  576.4855
 301  660.5059
 302  541.8343
 303  462.8139
 304  445.9329
 305  582.8557
 306  663.5121
 307  555.0052
 308  445.8991
 309  468.1228
 310  642.6203
 311  547.2299
 312  530.4805
 313  548.7911
 314  559.8792
 315  571.4207
 316  593.883
 317  634.1139
 318  590.9338
 319  658.4026
 320  577.1945
 321  563.6719
 322  639.5856
 323  514.2728
 324  438.141
 325  546.6693
 326  576.6486
 327  560.7383
 328  563.6547
 329  558.6823
 330  546.1092
 331  508.2769
 332  535.7113
 333  609.6509
 334  589.8209
 335  670.5638
 336  711.7315
 337  540.2742
 338  530.2122
 339  555.559
 340  560.7939
 341  573.7313
 342  607.6266
 343  657.6831
 344  583.2698
 345  620.7557
 346  626.7973
 347  635.0632
 348  564.2504
 349  534.3309
 350  636.9235
 351  633.6349
 352  590.7551
 353  560.6351
 354  683.1266
 355  672.9096
 356  599.8017
 357  657.4155
 358  659.1773
 359  644.4112
 360  599.9567
 361  707.9343
 362  596.7426
 363  597.2505
 364  440.4215
 365  508.913
 366  586.3664
 367  525.0388
 368  558.5334
 369  534.4623
 370  558.3669
 371  510.8813
 372  556.2607
 373  605.3835
 374  617.887
 375  573.9576
 376  605.8021
 377  599.1711
 378  573.9255
 379  613.0955
 380  608.2593
 381  582.3913
 382  631.6124
 383  571.9691
 384  569.3563
 385  575.8687
 386  539.2767
 387  575.04
 388  531.9696
 389  568.7561
 390  569.9156
 391  669.0224
 392  672.2338
 393  655.8439
 394  638.3433
 395  719.4145
 396  727.9573
 397  681.1594
 398  642.5103
 399  566.6443
 400  652.4701
 401  673.5234
 402  695.2315
 403  661.1879
 404  595.9832
 405  636.4011
 406  602.4309
 407  615.2574
 408  670.0301
 409  701.6888
 410  598.4442
 411  599.4309
 412  601.0096
 413  669.4952
 414  728.9458
 415  594.2468
 416  600.4727
 417  598.2648
 418  722.1453
 419  852.5555
 420  719.6316
 421  727.1715
 422  656.9167
 423  677.1464
 424  731.9084
 425  770.5546
 426  789.6248
 427  679.512
 428  555.4418
 429  714.79
 430  660.0382
 431  650.6522
 432  667.5493
 433  746.7507
 434  629.9521
 435  665.3676
 436  643.491
 437  656.6595
 438  688.8372
 439  671.373
 440  743.7985
 441  642.967
 442  643.7595
 443  657.6465
 444  686.0031
 445  723.8802
 446  713.8984
 447  686.8165
 448  656.2458
 449  695.6306
 450  633.8556
 451  649.0718
 452  584.9521
 453  564.5452
 454  553.8285
 455  658.2135
 456  753.0369
 457  667.1565
 458  678.1506
 459  638.2289
 460  631.2278
 461  630.6066
 462  652.2648
 463  780.4667
 464  668.078
 465  572.4387
 466  662.0351
 467  669.2908
 468  751.9677
 469  786.7409
 470  797.6053
 471  726.444
 472  717.2123
 473  854.099
 474  710.8801
 475  673.5921
 476  655.8462
 477  750.9173
 478  748.9005
 479  695.4043
 480  683.5214
 481  786.8843
 482  782.6799
 483  754.6259
 484  682.2998
 485  721.4487
 486  608.909
 487  730.3994
 488  793.2969
 489  763.2024
 490  656.6713
 491  686.0886
 492  709.6957
 493  748.3519
 494  821.1898
 495  768.5889
 496  695.1496
 497  717.2487
 498  735.7071
 499  725.7344
 500  652.8824
 501  663.9332
 502  694.4965
 503  580.5016
 504  587.6796
 505  659.0103
 506  671.8139
 507  701.3115
 508  676.5808
 509  597.2737
 510  470.7914
 511  416.2981
