# Input file       =  1212461417.113944_cleaned.dat
# Candidate        =  PSR_0332+5434
# Telescope        =  AR
# Epoch_topo       =  58277.118473541021
# Epoch_bary       =  N/A
# T_sample         =  0.002
# Data Folded      =  7143424
# Data Avg         =  0.265370412754245
# Data StdDev      =  5.77458980891046 
# Profile Bins     =  1024
# Profile Avg      =  1851.21439602927 
# Profile StdDev   =  482.307900546051 
# Reduced chi-sqr  =  0.665
# Prob(Noise)      <  1   (~0.0 sigma)
# P_topo (ms)      =  714.510040484205  +/- 4.74e-05
# P'_topo (s/s)    =  -0                +/- 2.57e-11
# P''_topo (s/s^2) =  0                 +/- 1.17e-14
# P_bary (ms)      =  N/A
# P'_bary (s/s)    =  N/A
# P''_bary (s/s^2) =  N/A
# P_orb (s)        =  N/A
# asin(i)/c (s)    =  N/A
# eccentricity     =  N/A
# w (rad)          =  N/A
# T_peri           =  N/A
######################################################
   0  2102.838
   1  2032.301
   2  1864.168
   3  1770.963
   4  1642.287
   5  1676.866
   6  1661.842
   7  1672.363
   8  1618.045
   9  1815.714
  10  2004.989
  11  1992.624
  12  1954.124
  13  1820.933
  14  1913.314
  15  2021.041
  16  2029.489
  17  1926.948
  18  1893.13
  19  2009.277
  20  2034.76
  21  1900.049
  22  1595.307
  23  1663.63
  24  1581.438
  25  1589.721
  26  1644.563
  27  1881.953
  28  1917.709
  29  2007.893
  30  2266.263
  31  2056.657
  32  1850.451
  33  1813.744
  34  2021.433
  35  1997.818
  36  1977.368
  37  2024.224
  38  2002.942
  39  1752.578
  40  1521.65
  41  1817.109
  42  1775.168
  43  1953.621
  44  1990.741
  45  2210.965
  46  1943.702
  47  1762.917
  48  1841.693
  49  1860.613
  50  1897.6
  51  1922.816
  52  1999.243
  53  1924.812
  54  1982.709
  55  2047.238
  56  1927.131
  57  1597.691
  58  1438.636
  59  1662.384
  60  1802.854
  61  1714.225
  62  1735.851
  63  1592.935
  64  1517.428
  65  1501.73
  66  1898.092
  67  2026.292
  68  2063.971
  69  1937.993
  70  1878.851
  71  1591.574
  72  1443.709
  73  1432.725
  74  1704.971
  75  1794.016
  76  1870.978
  77  1923.186
  78  1869.143
  79  1803.404
  80  1796.442
  81  1896.137
  82  1847.554
  83  1892.065
  84  2029.795
  85  1959.012
  86  1689.028
  87  1466.882
  88  1578.384
  89  1703.883
  90  1718.973
  91  1905.189
  92  2047.116
  93  2194.053
  94  2080.991
  95  2012.201
  96  1795.342
  97  1818.176
  98  1832.086
  99  1878.394
 100  1779.074
 101  1694.11
 102  1738.036
 103  1905.737
 104  1786.866
 105  1637.685
 106  1605.07
 107  1791.596
 108  2060.943
 109  2087.889
 110  1986.212
 111  1955.271
 112  2095.785
 113  2305.631
 114  2248.29
 115  2151.295
 116  1960.062
 117  1864.1
 118  1937.122
 119  1879.107
 120  1874.339
 121  1757.971
 122  1675.756
 123  1793.282
 124  1903.133
 125  1983.415
 126  1814.504
 127  1928.109
 128  1780.24
 129  1960.311
 130  1851.326
 131  1849.057
 132  1806.998
 133  1963.833
 134  1946.265
 135  1838.669
 136  1777.258
 137  1666.602
 138  1665.095
 139  1715.932
 140  1828.64
 141  1868.166
 142  1882.178
 143  2059.148
 144  2055.944
 145  2085.507
 146  1904.184
 147  2017.667
 148  1983.796
 149  2012.589
 150  1975.989
 151  1908.514
 152  1820.904
 153  1758.342
 154  1730.323
 155  1537.583
 156  1617.508
 157  1833.924
 158  2061.672
 159  2021.003
 160  2013.93
 161  1959.12
 162  1962.873
 163  1938.759
 164  1904.409
 165  1920.003
 166  1892.321
 167  1823.243
 168  1628.593
 169  1500.214
 170  1459.174
 171  1512.929
 172  1615.265
 173  1651.786
 174  1798.615
 175  1962.47
 176  2085.261
 177  1995.644
 178  1991.518
 179  2000.152
 180  1953.769
 181  2005.229
 182  2157.041
 183  2082.088
 184  1864.763
 185  1759.924
 186  1764.492
 187  1509.451
 188  1372.006
 189  1432.136
 190  1550.519
 191  1536.292
 192  1741.154
 193  1918.729
 194  2038.09
 195  1973.304
 196  2100.302
 197  2173.238
 198  2048.767
 199  2001.328
 200  1973.492
 201  1899.496
 202  1734.185
 203  1775.444
 204  1666.615
 205  1527.204
 206  1443.179
 207  1531.095
 208  1823.869
 209  1869.808
 210  1902.483
 211  1821.389
 212  1825.653
 213  1849.488
 214  1937.227
 215  1938.083
 216  1791.51
 217  1671.688
 218  1626.267
 219  1551.045
 220  1540.717
 221  1729.037
 222  1748.897
 223  1641.021
 224  1627.193
 225  1593.847
 226  1800.406
 227  1922.425
 228  1973.058
 229  1856.578
 230  1823.338
 231  1856.155
 232  2004.876
 233  2067.774
 234  1769.56
 235  1630.348
 236  1621.25
 237  1578.994
 238  1432.248
 239  1539.107
 240  1794.368
 241  1920.302
 242  1809.218
 243  1762.811
 244  1807.208
 245  1835.139
 246  1871.177
 247  1844.732
 248  1702.429
 249  1631.364
 250  1649.596
 251  1731.265
 252  1531.479
 253  1510.524
 254  1441.959
 255  1570.648
 256  1767.992
 257  1880.419
 258  1763.534
 259  1715.471
 260  1746.873
 261  1693.245
 262  1773.549
 263  1894.932
 264  1973.514
 265  1989.068
 266  2007.86
 267  2036.341
 268  1891.471
 269  1752.987
 270  1629.516
 271  1581.54
 272  1469.003
 273  1522.355
 274  1489.984
 275  1559.701
 276  1661.743
 277  1823.038
 278  1942.074
 279  1767.496
 280  1840.162
 281  1887.031
 282  1988.712
 283  1887.749
 284  1683.891
 285  1659.56
 286  1571.877
 287  1626.999
 288  1618.192
 289  1923.524
 290  2063.248
 291  2146.25
 292  2079.212
 293  1903.786
 294  1829.292
 295  1794.986
 296  1888.709
 297  1888.879
 298  1800.28
 299  1766.632
 300  1760.876
 301  1636.181
 302  1499.969
 303  1463.65
 304  1586.64
 305  1988.426
 306  2254.529
 307  2341.576
 308  2011.05
 309  2158.787
 310  2253.421
 311  2322.475
 312  2118.979
 313  2089.696
 314  2080.168
 315  1969.355
 316  1854.572
 317  1861.89
 318  1825.578
 319  1654.54
 320  1597.8
 321  1650.56
 322  1773.936
 323  1981.557
 324  2254.196
 325  2186.366
 326  2062.082
 327  1849.172
 328  1906.37
 329  2004.119
 330  2182.195
 331  1967.595
 332  1890.703
 333  1780.121
 334  1788.829
 335  1650.164
 336  1578.397
 337  1529.845
 338  1625.518
 339  1807.982
 340  1947.795
 341  1963.329
 342  1907.887
 343  1883.77
 344  1943.031
 345  2031.95
 346  1953.189
 347  1984.53
 348  2018.017
 349  1909.156
 350  1867.791
 351  1898.733
 352  1915.922
 353  1851.716
 354  1899.402
 355  1867.23
 356  1861.935
 357  1842.099
 358  1847.04
 359  2040.862
 360  1938.416
 361  1939.048
 362  1958.455
 363  2077.722
 364  2164.575
 365  2104.203
 366  2068.725
 367  1879.588
 368  1731.89
 369  1789.88
 370  1827.894
 371  1838.497
 372  1814.729
 373  1818.018
 374  2018.226
 375  2075.877
 376  2052.008
 377  2119.745
 378  2214.994
 379  2236.938
 380  2149.711
 381  1890.926
 382  1944.958
 383  1798.536
 384  1794.599
 385  1454.495
 386  1538.727
 387  1557.921
 388  1651.5
 389  1778.69
 390  1913.459
 391  2012.471
 392  1942.277
 393  1930.234
 394  1994.906
 395  1995.989
 396  2012.408
 397  2018.736
 398  1872.685
 399  1813.815
 400  1773.67
 401  1623.525
 402  1459.413
 403  1431.652
 404  1563.016
 405  1544.582
 406  1492.741
 407  1457.683
 408  1669.22
 409  1796.56
 410  1916.321
 411  1922.859
 412  1946.455
 413  1923.195
 414  1913.495
 415  2160.753
 416  1968.643
 417  1722.105
 418  1698.748
 419  1843.561
 420  2012.593
 421  1848.192
 422  1892.643
 423  1770.647
 424  1732.747
 425  1591.047
 426  1684.753
 427  1881.237
 428  1819.61
 429  2027.174
 430  2066.516
 431  1930.583
 432  1720.941
 433  1762.569
 434  1890.981
 435  1923.832
 436  1881.405
 437  2006.643
 438  1941.741
 439  1873.335
 440  1826.749
 441  1729.64
 442  1780.078
 443  1682.24
 444  1871.612
 445  1783.147
 446  1634.468
 447  1725.297
 448  1822.377
 449  1698.411
 450  1405.31
 451  1286.972
 452  1424.019
 453  1524.35
 454  1758.335
 455  1860.057
 456  1910.313
 457  1950.391
 458  1989.563
 459  2126.459
 460  1964.956
 461  1860.549
 462  1846.707
 463  1874.31
 464  1736.414
 465  1663.215
 466  1499.759
 467  1451.431
 468  1352.179
 469  1419.341
 470  1550.298
 471  1812.808
 472  2069.746
 473  2213.531
 474  2194.51
 475  1981.34
 476  1792.948
 477  1789.234
 478  1829.074
 479  1880.025
 480  1870.129
 481  1688.107
 482  1517.991
 483  1570.938
 484  1625.923
 485  1505.635
 486  1493.002
 487  1632.503
 488  1930.167
 489  1842.38
 490  1955.863
 491  1824.072
 492  1975.616
 493  1922.584
 494  1939.43
 495  1833.68
 496  1866.519
 497  1988.305
 498  1931.135
 499  1733.301
 500  1664.497
 501  1640.251
 502  1635.28
 503  1610.136
 504  1681.415
 505  1624.816
 506  1748.278
 507  1678.314
 508  1764.076
 509  1652.443
 510  1843.543
 511  1966.727
 512  2017.298
 513  2007.315
 514  1763.919
 515  1799.858
 516  1611.88
 517  1637.965
 518  1488.536
 519  1466.026
 520  1465.791
 521  1686.978
 522  1846.73
 523  1979.193
 524  2135.347
 525  1972.484
 526  2099.297
 527  2143.223
 528  2261.494
 529  2152.286
 530  2053.457
 531  1883.66
 532  1780.407
 533  1671.203
 534  1655.227
 535  1735.873
 536  1757.359
 537  1782.953
 538  1765.192
 539  1901.048
 540  1864.045
 541  1855.235
 542  1899.467
 543  1909.865
 544  1973.218
 545  2024.781
 546  2094.25
 547  2060.929
 548  2039.828
 549  1903.338
 550  1725.208
 551  1537.785
 552  1430.904
 553  1597.905
 554  1754.236
 555  1725.864
 556  1930.468
 557  2074.831
 558  2031.679
 559  1964.505
 560  2007.855
 561  2036.751
 562  2117.139
 563  2250.962
 564  2202.422
 565  1941.238
 566  1797.302
 567  1813.549
 568  1779.902
 569  1754.068
 570  1758.163
 571  1978.901
 572  1909.461
 573  1779.958
 574  1675.612
 575  1747.449
 576  1916.368
 577  2150.365
 578  2317.817
 579  2161.4
 580  1999.566
 581  2099.797
 582  2107.966
 583  1961.173
 584  1677.487
 585  1789.586
 586  2008.51
 587  2176.932
 588  2201.606
 589  2306.793
 590  2295.217
 591  2387.122
 592  2468.148
 593  2737.327
 594  2851.548
 595  2944.622
 596  3012.265
 597  2943.5
 598  2791.011
 599  2710.479
 600  2730.07
 601  2499.788
 602  2176.538
 603  2089.156
 604  2121.893
 605  2258.027
 606  2212.897
 607  2259.747
 608  2009.733
 609  1922.053
 610  1932.186
 611  1944.792
 612  1880.518
 613  1919.793
 614  1925.227
 615  1826.559
 616  1597.12
 617  1509.16
 618  1620.847
 619  1761.58
 620  2027.479
 621  2308.762
 622  2343.617
 623  2355.63
 624  2240.754
 625  2231.696
 626  2124.094
 627  2286.453
 628  2189.363
 629  2028.496
 630  1899.189
 631  1850.054
 632  1717.448
 633  1524.724
 634  1345.452
 635  1551.401
 636  1823.313
 637  2020.198
 638  1948.204
 639  1831.005
 640  1843.336
 641  1975.433
 642  1982.552
 643  1878.59
 644  1817.018
 645  2055.412
 646  2154.936
 647  1973.523
 648  1686.88
 649  1360.332
 650  1535.377
 651  1581.32
 652  1599.538
 653  1680.13
 654  1867.241
 655  2054.793
 656  2032.494
 657  1952.697
 658  1765.532
 659  1953.816
 660  2238.397
 661  2282.978
 662  1894.663
 663  1683.044
 664  1529.049
 665  1516.53
 666  1423.808
 667  1468.563
 668  1717.73
 669  1976.685
 670  2215.394
 671  2120.195
 672  2001.656
 673  1988.225
 674  2127.788
 675  2083.702
 676  1880.031
 677  1932.758
 678  2121.728
 679  2062.677
 680  1840.31
 681  1661.585
 682  1574.318
 683  1419.512
 684  1401.386
 685  1403.991
 686  1750.735
 687  1866.105
 688  1965.809
 689  1953.903
 690  2054.204
 691  2211.852
 692  2140.841
 693  2156.854
 694  2080.534
 695  2032.145
 696  1788.553
 697  1701.878
 698  1589.705
 699  1593.462
 700  1585.713
 701  1666.644
 702  1662.04
 703  1660.556
 704  1826.667
 705  1975.717
 706  2102.769
 707  1964.729
 708  1981.502
 709  1969.801
 710  2066.663
 711  2145.97
 712  2113.767
 713  2017.102
 714  1849.485
 715  1918.552
 716  1819.916
 717  1671.136
 718  1597.209
 719  1571.295
 720  1673.76
 721  1668.489
 722  1643.639
 723  1590.497
 724  1760.583
 725  1895.553
 726  2038.449
 727  2025.526
 728  2004.789
 729  2055.76
 730  2109.966
 731  1832.193
 732  1620.812
 733  1661.028
 734  1806.105
 735  1893.014
 736  1837.33
 737  1852.874
 738  1868.549
 739  1930.22
 740  1852.099
 741  1792.879
 742  1942.449
 743  2138.61
 744  2228.712
 745  2068.445
 746  1699.467
 747  1812.362
 748  1858.01
 749  1820.747
 750  1642.554
 751  1784.52
 752  1881.492
 753  1885.026
 754  1925.383
 755  1740.598
 756  1824.898
 757  1761.908
 758  1885.792
 759  1890.948
 760  1994.789
 761  1995.885
 762  1951.025
 763  1928.321
 764  1851.126
 765  1827.593
 766  1711.059
 767  1817.257
 768  1869.457
 769  1901.221
 770  1720.597
 771  1845.987
 772  2041.14
 773  2107.685
 774  2166.404
 775  2124.59
 776  2026.785
 777  1952.444
 778  2139.874
 779  2190.823
 780  1998.019
 781  1845.36
 782  1799.866
 783  1926.865
 784  1835.95
 785  1677.064
 786  1814.537
 787  1772.923
 788  1901.62
 789  1841.692
 790  2020.218
 791  1946.309
 792  1910.503
 793  2031.606
 794  1968.519
 795  1775.247
 796  1722.026
 797  1853.384
 798  1897.014
 799  1763.938
 800  1636.964
 801  1660.549
 802  1692.463
 803  1962.87
 804  2001.379
 805  1792.309
 806  1637.949
 807  1774.378
 808  2216.566
 809  2254.544
 810  2146.8
 811  2009.243
 812  2104.928
 813  2063.905
 814  1910.612
 815  1757.459
 816  1694.975
 817  1760.946
 818  1918.107
 819  2015.886
 820  1888.362
 821  1894.847
 822  2019.028
 823  2053.344
 824  1951.061
 825  1624.413
 826  1884.429
 827  1951.341
 828  2057.999
 829  1776.834
 830  1653.713
 831  1454.131
 832  1581.76
 833  1670.464
 834  1835.337
 835  1936.569
 836  2072.826
 837  2115.327
 838  1871.404
 839  1869.392
 840  1745.48
 841  1981.194
 842  1955.889
 843  1813.448
 844  1697.812
 845  1826.805
 846  1791.397
 847  1712.076
 848  1549.283
 849  1558.445
 850  1543.204
 851  1646.905
 852  1604.064
 853  1840.742
 854  1869.495
 855  1870.726
 856  1763.905
 857  1929.006
 858  2061.827
 859  2122.472
 860  2059.45
 861  1818.307
 862  1674.088
 863  1618.515
 864  1753.368
 865  1728.659
 866  1639.903
 867  1683.885
 868  1779.095
 869  1799.198
 870  1760.364
 871  1893.583
 872  2042.448
 873  1985.015
 874  1957.131
 875  1999.13
 876  2121.801
 877  2183.733
 878  2116.643
 879  1767.32
 880  1582.487
 881  1440.418
 882  1589.218
 883  1696.092
 884  1666.781
 885  1664.858
 886  1636.505
 887  1762.693
 888  1700.814
 889  1801.516
 890  1846.579
 891  2043.338
 892  2052.572
 893  1942.971
 894  1767.629
 895  1555.657
 896  1561.663
 897  1531.356
 898  1483.409
 899  1359.349
 900  1356.201
 901  1575.694
 902  1927.806
 903  2093.006
 904  1984.126
 905  1777.382
 906  1809.697
 907  1954.771
 908  1982.847
 909  2004.625
 910  2057.282
 911  1937.98
 912  1895.093
 913  1709.011
 914  1694.66
 915  1636.755
 916  1765.48
 917  1694.194
 918  1533.961
 919  1481.853
 920  1559.961
 921  1623.649
 922  1392.932
 923  1558.143
 924  1801.533
 925  1935.495
 926  2063.435
 927  2213.222
 928  2119.114
 929  1783.666
 930  1708.368
 931  1706.191
 932  1705.203
 933  1571.346
 934  1650.356
 935  1570.046
 936  1438.477
 937  1338.773
 938  1556.977
 939  1781.725
 940  1772.844
 941  1824.917
 942  1799.712
 943  1635.578
 944  1546.12
 945  1760.646
 946  1896.25
 947  1605.844
 948  1507.935
 949  1610.724
 950  1986.285
 951  2115.456
 952  2076.51
 953  1973.524
 954  1830.321
 955  1784.066
 956  1871.819
 957  1907.759
 958  1680.365
 959  1692.638
 960  1793.695
 961  1798.376
 962  1630.456
 963  1643.513
 964  1662.697
 965  1593.588
 966  1655.644
 967  1808.122
 968  1998.078
 969  2051.756
 970  2049.965
 971  1963.829
 972  1832.816
 973  1750.604
 974  2056.839
 975  2155.064
 976  1915.173
 977  1652.355
 978  1553.609
 979  1495.632
 980  1490.744
 981  1558.619
 982  1752.092
 983  1802.44
 984  2005.76
 985  1873.311
 986  1948.079
 987  1782.042
 988  1852.125
 989  1952.776
 990  1984.545
 991  1950.41
 992  1937.332
 993  1963.393
 994  1752.295
 995  1561.229
 996  1555.147
 997  1812.757
 998  1849.905
 999  1873.177
1000  1900.473
1001  1914.11
1002  1948.343
1003  1833.991
1004  1987.775
1005  1946.442
1006  1934.991
1007  1910.68
1008  1813.244
1009  1742.655
1010  1720.447
1011  1706.224
1012  1655.541
1013  1625.828
1014  1564.578
1015  1532.346
1016  1548.524
1017  1718.556
1018  1958.774
1019  1954.932
1020  1982.834
1021  1918.24
1022  1938.8
1023  2017.268
