# Input file       =  1212719885.108598_cleaned.dat
# Candidate        =  PSR_0332+5434
# Telescope        =  AR
# Epoch_topo       =  58280.110001256922
# Epoch_bary       =  N/A
# T_sample         =  0.002
# Data Folded      =  7143424
# Data Avg         =  0.210000721049931
# Data StdDev      =  5.5525636025144  
# Profile Bins     =  1024
# Profile Avg      =  1464.8275041307  
# Profile StdDev   =  463.763727363767 
# Reduced chi-sqr  =  0.482
# Prob(Noise)      <  1   (~0.0 sigma)
# P_topo (ms)      =  714.507179151031  +/- 5.8e-05
# P'_topo (s/s)    =  -0                +/- 3.15e-11
# P''_topo (s/s^2) =  0                 +/- 1.43e-14
# P_bary (ms)      =  N/A
# P'_bary (s/s)    =  N/A
# P''_bary (s/s^2) =  N/A
# P_orb (s)        =  N/A
# asin(i)/c (s)    =  N/A
# eccentricity     =  N/A
# w (rad)          =  N/A
# T_peri           =  N/A
######################################################
   0  1327.96
   1  1428.804
   2  1419.773
   3  1442.214
   4  1364.271
   5  1387.462
   6  1395.255
   7  1285.239
   8  1448.551
   9  1384.137
  10  1542.836
  11  1582.736
  12  1709.385
  13  1607.726
  14  1372.898
  15  1367.853
  16  1278.741
  17  1230.978
  18  1276.936
  19  1319.369
  20  1327.961
  21  1116.885
  22  1180.4
  23  1247.908
  24  1413.982
  25  1441.405
  26  1467.059
  27  1441.295
  28  1539.128
  29  1738.122
  30  1636.102
  31  1469.195
  32  1327.536
  33  1396.51
  34  1319.157
  35  1178.382
  36  1341.951
  37  1428.699
  38  1535.852
  39  1594.238
  40  1793.875
  41  1834.162
  42  1694.22
  43  1618.312
  44  1634.929
  45  1595.436
  46  1430.452
  47  1433.244
  48  1529.697
  49  1642.367
  50  1621.736
  51  1744.362
  52  1768.311
  53  1669.87
  54  1636.749
  55  1621.349
  56  1740.492
  57  1619.206
  58  1553.495
  59  1430.251
  60  1260.077
  61  1274.162
  62  1259.728
  63  1289.698
  64  1372.611
  65  1467.115
  66  1532.142
  67  1419.505
  68  1382.818
  69  1513.96
  70  1658.894
  71  1741.537
  72  1640.046
  73  1511.926
  74  1428.87
  75  1488.084
  76  1724.001
  77  1714.733
  78  1715.527
  79  1519.568
  80  1588.577
  81  1527.374
  82  1635.25
  83  1630.919
  84  1508.16
  85  1486.102
  86  1487.578
  87  1484.299
  88  1463.217
  89  1331.261
  90  1370.847
  91  1541.95
  92  1521.511
  93  1516.554
  94  1452.479
  95  1605.975
  96  1581.064
  97  1429.229
  98  1475.042
  99  1537.162
 100  1533.129
 101  1549.663
 102  1619.649
 103  1618.334
 104  1421.522
 105  1375.133
 106  1508.947
 107  1535.149
 108  1500.504
 109  1586.759
 110  1601.542
 111  1554.592
 112  1593.721
 113  1567.02
 114  1625.578
 115  1629.988
 116  1728.598
 117  1734.059
 118  1631.342
 119  1609.352
 120  1523.247
 121  1496.705
 122  1511.784
 123  1663.664
 124  1815.33
 125  1780.333
 126  1677.036
 127  1514.705
 128  1510.175
 129  1425.326
 130  1460.236
 131  1459.291
 132  1575.086
 133  1469.482
 134  1477.006
 135  1517.12
 136  1662.013
 137  1590.576
 138  1655.725
 139  1681.86
 140  1668.964
 141  1810.703
 142  1992.88
 143  2157.673
 144  1860.322
 145  1705.027
 146  1502.831
 147  1392.072
 148  1323.728
 149  1253.104
 150  1228.469
 151  1212.306
 152  1471.165
 153  1655.221
 154  1616.219
 155  1443.192
 156  1518.663
 157  1690.731
 158  1742.518
 159  1672.334
 160  1576.908
 161  1711.596
 162  1599.298
 163  1514.182
 164  1370.564
 165  1244.667
 166  1271.593
 167  1232.413
 168  1389.602
 169  1271.538
 170  1260.093
 171  1475.248
 172  1690.633
 173  1709.523
 174  1755.198
 175  1822.186
 176  1869.505
 177  1727.98
 178  1742.878
 179  1625.562
 180  1544.82
 181  1506.413
 182  1470.668
 183  1451.568
 184  1567.416
 185  1681.705
 186  1664.036
 187  1523.979
 188  1369.846
 189  1345.763
 190  1253.955
 191  1394.438
 192  1473.976
 193  1529.347
 194  1522.047
 195  1506.25
 196  1711.151
 197  1543.871
 198  1554.35
 199  1562.868
 200  1512.28
 201  1553.899
 202  1490.359
 203  1556.746
 204  1527.034
 205  1554.507
 206  1587.06
 207  1707.521
 208  1764.556
 209  1836.018
 210  1702.401
 211  1503.49
 212  1312.184
 213  1262.132
 214  1428.859
 215  1506.398
 216  1473.885
 217  1424.435
 218  1459.073
 219  1420.682
 220  1322.632
 221  1322.584
 222  1403.35
 223  1678.389
 224  1687.883
 225  1710.872
 226  1533.425
 227  1545.504
 228  1545.16
 229  1567.86
 230  1479.6
 231  1358.582
 232  1495.545
 233  1611.388
 234  1718.895
 235  1578.428
 236  1573.038
 237  1428.847
 238  1585.82
 239  1626.146
 240  1837.794
 241  1835.381
 242  1936.658
 243  1885.443
 244  1609.745
 245  1377.031
 246  1221.776
 247  1386.611
 248  1578.807
 249  1645.552
 250  1631.312
 251  1454.413
 252  1340.317
 253  1280.175
 254  1315.995
 255  1431.615
 256  1499.511
 257  1453.224
 258  1387.524
 259  1336.612
 260  1327.162
 261  1508.952
 262  1477.41
 263  1493.348
 264  1272.448
 265  1403.946
 266  1537.25
 267  1573.521
 268  1481.332
 269  1396.878
 270  1401.457
 271  1492.57
 272  1630.092
 273  1671.629
 274  1630.329
 275  1758.046
 276  1766.857
 277  1719.001
 278  1585.723
 279  1593.26
 280  1661.9
 281  1605.632
 282  1660.773
 283  1659.765
 284  1742.646
 285  1736.484
 286  1703.276
 287  1460.724
 288  1288.486
 289  1215.886
 290  1432.372
 291  1534.371
 292  1466.979
 293  1514.246
 294  1501.315
 295  1457.703
 296  1452.832
 297  1450.884
 298  1549.335
 299  1376.035
 300  1416.937
 301  1550.703
 302  1579.561
 303  1573.903
 304  1388.011
 305  1543.466
 306  1636.373
 307  1688.96
 308  1767.126
 309  1773.403
 310  1734.111
 311  1562.45
 312  1448.076
 313  1475.115
 314  1323.463
 315  1444.673
 316  1372.585
 317  1480.676
 318  1414.605
 319  1434.792
 320  1461.057
 321  1492.126
 322  1721.848
 323  1767.076
 324  1659.782
 325  1428.91
 326  1466.584
 327  1394.889
 328  1295.476
 329  1271.749
 330  1413.577
 331  1481.31
 332  1346.737
 333  1371.695
 334  1222.858
 335  1294.433
 336  1342.51
 337  1404.639
 338  1391.057
 339  1407.207
 340  1670.493
 341  1547.809
 342  1500.093
 343  1152.609
 344  1091.824
 345  1088.415
 346  1267.907
 347  1476.031
 348  1468.894
 349  1550.896
 350  1564.817
 351  1582.053
 352  1326.617
 353  1120.497
 354  1145.89
 355  1258.872
 356  1282.042
 357  1214.516
 358  1255.463
 359  1163.974
 360  1118.142
 361  1072.213
 362  1207.676
 363  1338.033
 364  1256.511
 365  1303.026
 366  1237.353
 367  1235.705
 368  1233.629
 369  1515.096
 370  1549.227
 371  1470.999
 372  1435.562
 373  1500.929
 374  1441.134
 375  1373.767
 376  1311.247
 377  1364.268
 378  1304.254
 379  1435.797
 380  1529.861
 381  1426.071
 382  1349.426
 383  1286.965
 384  1178.711
 385  1050.33
 386  1027.691
 387  1151.564
 388  1292.749
 389  1229.243
 390  1443.959
 391  1522.437
 392  1662.397
 393  1621.543
 394  1555.628
 395  1496.034
 396  1327.681
 397  1236.617
 398  1212.697
 399  1262.153
 400  1322.522
 401  1389.243
 402  1280.669
 403  1245.694
 404  1223.795
 405  1439.48
 406  1450.989
 407  1409.197
 408  1369.471
 409  1326.627
 410  1326.903
 411  1299.606
 412  1365.343
 413  1393.047
 414  1471.754
 415  1500.742
 416  1548.758
 417  1502.414
 418  1520.966
 419  1631.798
 420  1543.959
 421  1673.626
 422  1579.734
 423  1724.464
 424  1558.595
 425  1424.399
 426  1232.359
 427  1136.352
 428  1104.139
 429  1288.597
 430  1449.666
 431  1502.401
 432  1471.63
 433  1519.957
 434  1647.635
 435  1492.869
 436  1232.722
 437  1161.532
 438  1340.799
 439  1491.066
 440  1533.693
 441  1547.521
 442  1653.192
 443  1662.909
 444  1727.778
 445  1774.811
 446  1822.496
 447  1736.194
 448  1718.816
 449  1555.233
 450  1464.151
 451  1236.51
 452  1297.316
 453  1510.7
 454  1529.085
 455  1638.956
 456  1494.715
 457  1526.674
 458  1415.777
 459  1435.228
 460  1420.352
 461  1513.959
 462  1559.557
 463  1768.854
 464  1662.497
 465  1600.385
 466  1562.468
 467  1548.932
 468  1454.285
 469  1393.904
 470  1535.914
 471  1639.721
 472  1683.267
 473  1750.26
 474  1661.087
 475  1684.938
 476  1506.171
 477  1544.519
 478  1475.161
 479  1607.17
 480  1489.354
 481  1349.211
 482  1268.377
 483  1427.489
 484  1666.176
 485  1680.188
 486  1616.37
 487  1504.868
 488  1602.589
 489  1659.512
 490  1543.949
 491  1442.051
 492  1455.157
 493  1584.782
 494  1491.393
 495  1477.16
 496  1508.043
 497  1520.369
 498  1623.181
 499  1590.713
 500  1535.01
 501  1379.925
 502  1493.787
 503  1568.804
 504  1601.865
 505  1647.905
 506  1783.861
 507  1804.51
 508  1739.884
 509  1693.302
 510  1515.477
 511  1414.129
 512  1427.096
 513  1608.75
 514  1586.623
 515  1434.737
 516  1432.39
 517  1369.295
 518  1315.647
 519  1170.259
 520  1294.275
 521  1470.538
 522  1381.499
 523  1412.002
 524  1409.718
 525  1545.653
 526  1516.24
 527  1472.748
 528  1491.156
 529  1437.239
 530  1312.781
 531  1346.894
 532  1248.983
 533  1279.841
 534  1145.467
 535  1162.644
 536  1232.892
 537  1316.767
 538  1564.747
 539  1599.252
 540  1601.909
 541  1517.812
 542  1584.532
 543  1525.241
 544  1509.092
 545  1561.032
 546  1547.929
 547  1323.629
 548  1109.97
 549  1073.523
 550  1253.724
 551  1231.144
 552  1239.72
 553  1174.328
 554  1210.469
 555  1190.563
 556  1292.523
 557  1318.771
 558  1444.748
 559  1435.52
 560  1445.309
 561  1410.633
 562  1365.231
 563  1463.947
 564  1414.195
 565  1587.757
 566  1691.361
 567  1687.587
 568  1460.44
 569  1309.343
 570  1373.146
 571  1457.568
 572  1609.154
 573  1629.569
 574  1623.568
 575  1495.049
 576  1423.293
 577  1536.561
 578  1524.752
 579  1523.252
 580  1409.151
 581  1430.213
 582  1470.461
 583  1505.351
 584  1598.263
 585  1625.107
 586  1803.37
 587  1921.458
 588  2086.249
 589  1988.271
 590  1810.172
 591  1586.58
 592  1641.229
 593  1813.591
 594  1934.545
 595  2029.001
 596  2160.498
 597  2212.968
 598  2149.094
 599  2001.81
 600  1882.543
 601  1663.603
 602  1639.064
 603  1682.838
 604  1601.499
 605  1530.808
 606  1382.057
 607  1392.228
 608  1485.597
 609  1683.447
 610  1790.417
 611  1652.956
 612  1504.867
 613  1474.199
 614  1398.004
 615  1187.41
 616  1059.465
 617  1208.27
 618  1527.122
 619  1599.693
 620  1611.339
 621  1630.686
 622  1684.965
 623  1790.894
 624  1614.094
 625  1605.729
 626  1465.41
 627  1429.544
 628  1307.847
 629  1361.985
 630  1459.594
 631  1449.315
 632  1428.552
 633  1386.883
 634  1193.13
 635  1142.525
 636  1244.355
 637  1445.848
 638  1500.103
 639  1646.312
 640  1797.11
 641  1707.629
 642  1576.923
 643  1316.489
 644  1291.174
 645  1324.27
 646  1491.199
 647  1414.521
 648  1150.637
 649  1160.073
 650  1448.873
 651  1676.716
 652  1691.059
 653  1622.751
 654  1696.245
 655  1597.264
 656  1541.007
 657  1405.56
 658  1468.215
 659  1357.87
 660  1462.165
 661  1388.58
 662  1395.188
 663  1237.974
 664  1363.447
 665  1452.522
 666  1455.158
 667  1388.178
 668  1352.858
 669  1422.105
 670  1479.695
 671  1548.757
 672  1686.579
 673  1496.249
 674  1442.71
 675  1341.06
 676  1433.659
 677  1280.344
 678  1306.979
 679  1377.617
 680  1474.469
 681  1373.988
 682  1224.18
 683  1104.113
 684  910.2819
 685  1135.976
 686  1239.279
 687  1497.253
 688  1547.602
 689  1653.462
 690  1643.924
 691  1456.037
 692  1205.099
 693  1123.714
 694  1124.724
 695  1229.453
 696  1365.02
 697  1436.792
 698  1411.038
 699  1216.02
 700  1164.446
 701  1215.283
 702  1145.419
 703  1213.105
 704  1249.621
 705  1457.537
 706  1580.135
 707  1555.83
 708  1574.536
 709  1535.347
 710  1700.638
 711  1708.166
 712  1713.17
 713  1452.034
 714  1295.922
 715  1236.805
 716  1263.767
 717  1143.984
 718  1120.497
 719  1168.096
 720  1260.765
 721  1326.595
 722  1354.49
 723  1601.155
 724  1581.856
 725  1533.319
 726  1471.668
 727  1384.797
 728  1378.937
 729  1278.574
 730  1296.377
 731  1112.542
 732  1175.401
 733  1174.283
 734  1337.421
 735  1405.165
 736  1564.559
 737  1714.81
 738  1580.388
 739  1677.069
 740  1476.192
 741  1424.272
 742  1207.258
 743  1275.24
 744  1436.44
 745  1486.728
 746  1478.329
 747  1361.109
 748  1313.37
 749  1139.467
 750  1088.83
 751  1269.413
 752  1453.851
 753  1582.345
 754  1363.373
 755  1425.345
 756  1245.693
 757  1284.569
 758  1209.378
 759  1253.329
 760  1425.594
 761  1430.879
 762  1555.915
 763  1361.547
 764  1349.823
 765  1268.372
 766  1353.551
 767  1220.615
 768  1230.746
 769  1254.52
 770  1453.948
 771  1453.729
 772  1575.409
 773  1623.637
 774  1549.405
 775  1313.347
 776  1258.24
 777  1402.778
 778  1685.606
 779  1709.53
 780  1692.352
 781  1462.008
 782  1300.973
 783  1220.976
 784  1293.966
 785  1513.717
 786  1304.784
 787  1237.536
 788  1190.125
 789  1303.424
 790  1162.436
 791  1143.125
 792  1192.051
 793  1388.321
 794  1449.365
 795  1798.19
 796  1763.011
 797  1631.327
 798  1346.94
 799  1265.368
 800  1197.511
 801  1139.705
 802  1451.11
 803  1602.178
 804  1720.416
 805  1560.689
 806  1446.974
 807  1274.497
 808  1228.273
 809  1390.771
 810  1483.029
 811  1360.655
 812  1295.315
 813  1321.132
 814  1391.158
 815  1325.669
 816  1509.612
 817  1556.659
 818  1605.675
 819  1407.31
 820  1441.26
 821  1379.38
 822  1380.708
 823  1450.595
 824  1441.549
 825  1404.593
 826  1141.709
 827  1154.04
 828  1196.5
 829  1275.177
 830  1263.811
 831  1260.811
 832  1333.701
 833  1372.245
 834  1446.546
 835  1425.02
 836  1492.746
 837  1529.903
 838  1680.318
 839  1587.357
 840  1447.674
 841  1370.143
 842  1390.914
 843  1415.232
 844  1385.549
 845  1461.092
 846  1312.38
 847  1187.883
 848  1155.971
 849  1215.725
 850  1224.885
 851  1262.851
 852  1407.034
 853  1540.298
 854  1392.24
 855  1286.45
 856  1402.989
 857  1564.603
 858  1564.415
 859  1537.876
 860  1470.454
 861  1499.651
 862  1499.758
 863  1450.379
 864  1285.24
 865  1267.212
 866  1288.484
 867  1350.265
 868  1268.06
 869  1431.574
 870  1679.453
 871  1726.241
 872  1756.235
 873  1578.302
 874  1671.298
 875  1548.246
 876  1703.015
 877  1652.31
 878  1367.459
 879  1126.414
 880  1122.27
 881  1341.608
 882  1401.794
 883  1380.362
 884  1452.853
 885  1535.432
 886  1565.045
 887  1579.972
 888  1535.776
 889  1583.572
 890  1612.503
 891  1514.707
 892  1290.471
 893  1179.221
 894  1146.104
 895  1349.525
 896  1401.073
 897  1511.151
 898  1320.052
 899  1438.164
 900  1331.909
 901  1447.624
 902  1453.331
 903  1481.389
 904  1501.825
 905  1434.602
 906  1427.175
 907  1336.621
 908  1373.402
 909  1490.908
 910  1585.419
 911  1595.734
 912  1523.562
 913  1567.224
 914  1411.298
 915  1305.322
 916  1124.177
 917  1148.889
 918  1316.261
 919  1445.785
 920  1691.778
 921  1574.211
 922  1530.789
 923  1403.682
 924  1351.518
 925  1394
 926  1579.093
 927  1664.263
 928  1659.708
 929  1532.982
 930  1429.101
 931  1274.69
 932  1208.369
 933  1201.781
 934  1152.738
 935  1227.81
 936  1377.846
 937  1483.557
 938  1545.701
 939  1588.747
 940  1628.148
 941  1635.893
 942  1711.898
 943  1706.551
 944  1690.092
 945  1669.865
 946  1623.831
 947  1564.653
 948  1350.363
 949  1365.462
 950  1377.718
 951  1440.67
 952  1311.331
 953  1186.248
 954  1142.185
 955  1273.04
 956  1183.198
 957  1349.018
 958  1293.136
 959  1414.703
 960  1365.98
 961  1439.717
 962  1371.475
 963  1261.129
 964  1247.156
 965  1385.645
 966  1494.375
 967  1507.98
 968  1340.309
 969  1288.032
 970  1197.39
 971  1161.128
 972  1213.573
 973  1237.468
 974  1283.518
 975  1371.528
 976  1484.545
 977  1452.938
 978  1444.03
 979  1428.045
 980  1324.562
 981  1222.843
 982  1280.175
 983  1451.823
 984  1672.932
 985  1726.733
 986  1575.198
 987  1583.325
 988  1499.312
 989  1451.926
 990  1296.824
 991  1300.899
 992  1371.327
 993  1526.531
 994  1547.164
 995  1367.812
 996  1247.242
 997  1191.687
 998  1208.248
 999  1408.658
1000  1630.187
1001  1643.999
1002  1556.878
1003  1408.856
1004  1403.36
1005  1341.285
1006  1361.966
1007  1400.696
1008  1322.623
1009  1405.089
1010  1457.279
1011  1532.055
1012  1496.613
1013  1445.399
1014  1567.76
1015  1671.912
1016  1581.404
1017  1547.693
1018  1512.664
1019  1584.195
1020  1482.983
1021  1411.079
1022  1382.71
1023  1419.358
