# Input file       =  1212719885.108598_cleaned.dat
# Candidate        =  PSR_0332+5434
# Telescope        =  AR
# Epoch_topo       =  58280.110001256922
# Epoch_bary       =  N/A
# T_sample         =  0.002
# Data Folded      =  7143424
# Data Avg         =  0.0469955437916299
# Data StdDev      =  1.00002888013482 
# Profile Bins     =  512
# Profile Avg      =  655.569568569601 
# Profile StdDev   =  118.121995762512 
# Reduced chi-sqr  =  1.114
# Prob(Noise)      <  0.0372   (~1.8 sigma)
# P_topo (ms)      =  714.507178450514  +/- 0.000226
# P'_topo (s/s)    =  -0                +/- 1.22e-10
# P''_topo (s/s^2) =  0                 +/- 5.55e-14
# P_bary (ms)      =  N/A
# P'_bary (s/s)    =  N/A
# P''_bary (s/s^2) =  N/A
# P_orb (s)        =  N/A
# asin(i)/c (s)    =  N/A
# eccentricity     =  N/A
# w (rad)          =  N/A
# T_peri           =  N/A
######################################################
   0  1200.259
   1  1064.881
   2  857.0233
   3  677.1089
   4  609.6217
   5  587.2921
   6  741.0393
   7  701.5104
   8  669.8298
   9  533.9121
  10  613.8865
  11  738.697
  12  673.0867
  13  711.7397
  14  743.8856
  15  691.1224
  16  612.3942
  17  588.9747
  18  553.2039
  19  439.6767
  20  525.9622
  21  620.0189
  22  726.5452
  23  636.3419
  24  624.0098
  25  540.4984
  26  512.0671
  27  751.6539
  28  755.0778
  29  688.603
  30  650.6694
  31  654.8998
  32  651.059
  33  562.8246
  34  580.064
  35  573.394
  36  627.1614
  37  698.4833
  38  553.7606
  39  606.9998
  40  698.6853
  41  677.7287
  42  646.6723
  43  482.3556
  44  534.277
  45  729.0233
  46  799.0603
  47  582.39
  48  452.133
  49  560.1177
  50  661.7259
  51  624.1609
  52  514.2769
  53  524.1144
  54  643.3645
  55  682.0508
  56  699.0796
  57  694.5525
  58  593.4515
  59  590.2733
  60  598.0377
  61  599.1216
  62  694.1614
  63  776.879
  64  687.2101
  65  636.2784
  66  617.1027
  67  515.3367
  68  530.0156
  69  612.1271
  70  688.8549
  71  718.3937
  72  570.9434
  73  568.9139
  74  657.9194
  75  605.2167
  76  510.4283
  77  642.2097
  78  716.8382
  79  568.9985
  80  574.7551
  81  574.2288
  82  655.2047
  83  609.8578
  84  529.3693
  85  570.561
  86  620.087
  87  709.6985
  88  768.4854
  89  589.4983
  90  695.5177
  91  791.1558
  92  695.6139
  93  587.2332
  94  567.3423
  95  448.0332
  96  559.1141
  97  521.9607
  98  674.4921
  99  801.8647
 100  645.5082
 101  500.6516
 102  556.0358
 103  650.8115
 104  705.2866
 105  612.3091
 106  649.6817
 107  651.8117
 108  625.1522
 109  655.0862
 110  681.5175
 111  635.2306
 112  596.2644
 113  670.181
 114  639.6239
 115  511.8459
 116  597.178
 117  685.1416
 118  656.6215
 119  553.6332
 120  618.1016
 121  623.715
 122  574.341
 123  593.3401
 124  560.1245
 125  463.7049
 126  479.8933
 127  574.821
 128  669.6409
 129  640.4871
 130  698.0202
 131  548.3198
 132  611.2012
 133  677.3062
 134  632.819
 135  534.4655
 136  616.9583
 137  827.0925
 138  744.1627
 139  729.041
 140  722.9575
 141  494.7916
 142  612.5253
 143  671.5019
 144  742.7975
 145  677.1666
 146  646.2826
 147  621.0714
 148  521.5394
 149  603.5107
 150  711.8995
 151  668.0464
 152  644.5712
 153  632.2881
 154  652.0365
 155  530.5898
 156  555.108
 157  646.1743
 158  648.7272
 159  557.9781
 160  539.0434
 161  759.8251
 162  757.5858
 163  642.9485
 164  645.114
 165  699.8557
 166  592.2615
 167  481.3378
 168  464.9315
 169  595.2905
 170  665.5047
 171  650.8361
 172  682.5959
 173  690.7054
 174  671.7154
 175  620.8743
 176  610.3684
 177  615.9819
 178  593.1141
 179  580.694
 180  559.548
 181  544.2169
 182  604.0512
 183  503.909
 184  575.3905
 185  661.104
 186  541.903
 187  421.1853
 188  495.1144
 189  627.9859
 190  641.7848
 191  620.7087
 192  570.5094
 193  716.3936
 194  793.0803
 195  757.1782
 196  685.9158
 197  575.4971
 198  650.0887
 199  678.3264
 200  586.3431
 201  584.0539
 202  556.8315
 203  583.2738
 204  610.4195
 205  621.7316
 206  659.0488
 207  643.5119
 208  581.4016
 209  660.8112
 210  675.9922
 211  713.3614
 212  676.6603
 213  710.3893
 214  687.3366
 215  669.0577
 216  603.9902
 217  569.3886
 218  516.5096
 219  639.2442
 220  625.7351
 221  606.79
 222  560.9362
 223  568.7128
 224  576.7966
 225  658.7474
 226  688.1152
 227  606.8035
 228  703.6972
 229  641.7326
 230  611.0352
 231  483.7455
 232  628.3972
 233  750.2092
 234  779.8136
 235  596.4809
 236  678.5904
 237  688.0302
 238  730.2752
 239  811.3087
 240  797.5345
 241  816.7468
 242  762.0728
 243  630.299
 244  600.3975
 245  578.2292
 246  617.409
 247  586.5862
 248  666.4268
 249  715.1104
 250  634.1855
 251  732.3919
 252  774.1314
 253  667.2077
 254  748.0347
 255  669.9939
 256  555.256
 257  664.0392
 258  613.9133
 259  655.4907
 260  594.243
 261  714.6142
 262  740.9191
 263  737.6247
 264  677.522
 265  709.1234
 266  642.4314
 267  659.488
 268  649.449
 269  738.1186
 270  758.8576
 271  786.5884
 272  825.5797
 273  787.4065
 274  680.9883
 275  777.0988
 276  819.2844
 277  673.4686
 278  651.8832
 279  626.0111
 280  616.7932
 281  647.607
 282  723.0036
 283  725.9008
 284  800.1938
 285  847.4719
 286  696.7948
 287  616.5003
 288  591.5016
 289  598.6819
 290  697.7042
 291  599.0566
 292  756.1649
 293  748.3798
 294  808.0775
 295  688.1072
 296  549.116
 297  553.0589
 298  561.0471
 299  712.4778
 300  743.3185
 301  750.804
 302  743.4026
 303  710.8432
 304  642.9395
 305  561.9951
 306  778.6581
 307  669.2318
 308  533.7128
 309  646.4144
 310  678.1298
 311  636.8339
 312  616.33
 313  702.5827
 314  730.5934
 315  721.6423
 316  689.5709
 317  741.0004
 318  823.7309
 319  683.1418
 320  636.6224
 321  690.2916
 322  607.5331
 323  623.1711
 324  611.6193
 325  741.7114
 326  688.2679
 327  642.4891
 328  724.1729
 329  608.3912
 330  725.8729
 331  737.8486
 332  700.7072
 333  798.9313
 334  892.7815
 335  732.4344
 336  616.8013
 337  656.2652
 338  755.7887
 339  717.5819
 340  616.7035
 341  698.2977
 342  670.7245
 343  633.0449
 344  677.6431
 345  569.2687
 346  644.8459
 347  642.7187
 348  667.3469
 349  778.428
 350  705.3391
 351  728.2451
 352  788.4553
 353  806.2693
 354  791.96
 355  795.9846
 356  842.212
 357  599.953
 358  543.2766
 359  657.4377
 360  702.3175
 361  734.202
 362  747.4065
 363  678.8149
 364  701.757
 365  752.7701
 366  710.0762
 367  698.5223
 368  735.4569
 369  702.7828
 370  640.438
 371  660.7706
 372  706.684
 373  641.0473
 374  684.8124
 375  727.3463
 376  626.0535
 377  684.8046
 378  620.2156
 379  594.767
 380  615.5464
 381  586.2197
 382  584.9078
 383  632.2048
 384  764.8776
 385  595.0229
 386  526.7741
 387  642.0701
 388  673.5695
 389  629.3395
 390  509.8609
 391  602.0223
 392  592.9792
 393  514.6207
 394  536.6676
 395  628.7068
 396  575.5753
 397  633.6617
 398  811.0449
 399  721.4999
 400  605.0804
 401  544.5344
 402  546.8323
 403  624.1605
 404  642.9799
 405  635.6078
 406  561.4615
 407  603.1821
 408  626.9839
 409  748.2299
 410  775.6359
 411  720.9992
 412  572.6772
 413  596.4725
 414  666.645
 415  597.8709
 416  639.2531
 417  616.4797
 418  624.286
 419  700.137
 420  704.1887
 421  691.8713
 422  760.3264
 423  749.735
 424  801.8364
 425  826.1051
 426  633.3594
 427  567.1379
 428  565.4001
 429  610.6102
 430  740.0061
 431  665.2803
 432  526.7493
 433  577.4454
 434  686.1855
 435  743.165
 436  805.5966
 437  852.9958
 438  760.1931
 439  611.3238
 440  664.0361
 441  639.2163
 442  699.3081
 443  646.1415
 444  658.412
 445  829.5153
 446  776.9841
 447  699.5297
 448  633.465
 449  718.3198
 450  724.5142
 451  681.0977
 452  630.386
 453  664.4664
 454  609.0115
 455  688.8918
 456  722.299
 457  733.6368
 458  717.2336
 459  645.8702
 460  702.6661
 461  660.6455
 462  693.4196
 463  672.783
 464  653.6809
 465  660.7358
 466  708.0341
 467  734.3217
 468  712.0617
 469  659.7197
 470  644.0365
 471  600.5893
 472  606.575
 473  574.967
 474  573.9662
 475  600.0417
 476  649.8558
 477  663.9278
 478  657.9104
 479  606.6757
 480  587.7043
 481  537.2073
 482  563.3665
 483  595.8453
 484  651.464
 485  617.7639
 486  623.5818
 487  543.3026
 488  529.171
 489  580.8381
 490  575.9838
 491  535.9717
 492  493.0777
 493  626.0292
 494  632.9844
 495  621.0092
 496  781.7391
 497  719.533
 498  512.2781
 499  620.858
 500  651.2137
 501  659.9021
 502  734.6694
 503  698.4726
 504  600.1221
 505  710.6115
 506  810.0923
 507  889.3207
 508  919.0126
 509  839.4318
 510  950.7003
 511  1129.796
