# Input file       =  1212734494.117161_cleaned.dat
# Candidate        =  PSR_0332+5434
# Telescope        =  AR
# Epoch_topo       =  58280.279087004179
# Epoch_bary       =  N/A
# T_sample         =  0.002
# Data Folded      =  7340032
# Data Avg         =  0.111011949896887
# Data StdDev      =  2.97020949968935 
# Profile Bins     =  512
# Profile Avg      =  1591.40162741001 
# Profile StdDev   =  355.632202072921 
# Reduced chi-sqr  =  1.148
# Prob(Noise)      <  0.0115   (~2.3 sigma)
# P_topo (ms)      =  714.507028445226  +/- 0.000618
# P'_topo (s/s)    =  -0                +/- 3.26e-10
# P''_topo (s/s^2) =  0                 +/- 1.44e-13
# P_bary (ms)      =  N/A
# P'_bary (s/s)    =  N/A
# P''_bary (s/s^2) =  N/A
# P_orb (s)        =  N/A
# asin(i)/c (s)    =  N/A
# eccentricity     =  N/A
# w (rad)          =  N/A
# T_peri           =  N/A
######################################################
   0  1489.376
   1  1425.583
   2  1292.786
   3  1682.735
   4  1673.848
   5  1665.961
   6  1648.167
   7  1556.428
   8  1834.494
   9  1663.556
  10  1528.98
  11  1521.114
  12  1653.96
  13  1557.727
  14  1906.028
  15  1760.938
  16  1686.789
  17  1526.81
  18  1332.855
  19  1515.219
  20  1708.483
  21  1834.425
  22  1626.958
  23  1609.731
  24  1771.63
  25  1806.426
  26  1526.03
  27  1648.981
  28  1794.82
  29  1765.077
  30  1879.276
  31  1776.901
  32  1830.232
  33  1958.556
  34  1868.543
  35  1772.569
  36  1649.225
  37  1845.505
  38  1647.786
  39  1624
  40  1787.101
  41  1705.792
  42  1605.477
  43  1850.981
  44  1992.739
  45  1913.767
  46  2016.292
  47  2008.523
  48  2217.702
  49  2325.886
  50  2885.517
  51  2841.835
  52  3015.523
  53  3163.939
  54  3217.762
  55  2277.519
  56  1839.849
  57  1801.118
  58  1843.811
  59  1679.531
  60  1391.811
  61  1639.402
  62  1758.354
  63  1815.235
  64  2039.331
  65  2231.014
  66  1919.745
  67  2049.991
  68  2109.945
  69  1874.293
  70  1492.485
  71  1345.357
  72  1603.184
  73  1523.99
  74  1709.527
  75  1597.464
  76  1703.757
  77  1807.96
  78  1346.494
  79  1534.533
  80  1645.358
  81  1513.894
  82  1496.81
  83  1748.672
  84  1841.718
  85  1676.865
  86  1335.149
  87  1596.309
  88  2101.694
  89  2148.332
  90  1871.948
  91  1793.047
  92  2003.62
  93  1710.415
  94  1856.371
  95  1812.707
  96  1843.321
  97  1891.853
  98  1705.33
  99  1558.787
 100  1731.367
 101  1865.925
 102  1586.238
 103  1676.576
 104  1690.884
 105  1491.609
 106  1443.354
 107  1829.549
 108  1583.197
 109  1737.778
 110  1849.814
 111  1868.328
 112  1782.638
 113  1589.418
 114  1533.784
 115  1319.952
 116  1488.942
 117  1661.121
 118  1437.177
 119  1415.959
 120  1269.838
 121  1598.852
 122  1836.247
 123  1736.669
 124  1702.899
 125  1848.7
 126  1547.126
 127  1559.528
 128  1846.256
 129  1803.303
 130  1884.421
 131  1655.22
 132  1612.919
 133  1905.355
 134  1700.139
 135  1552.428
 136  1252.611
 137  1585.019
 138  2034.782
 139  1874.259
 140  1496.669
 141  1917.953
 142  1790.218
 143  1699.031
 144  1778.817
 145  1920.123
 146  1683.926
 147  1892.321
 148  2063.846
 149  1781.944
 150  1508.953
 151  1706.714
 152  1713.758
 153  1783.738
 154  1833.643
 155  1918.278
 156  1558.343
 157  1386.896
 158  1359.063
 159  1597.812
 160  1888.575
 161  1789.065
 162  1763.434
 163  1662.353
 164  1434.7
 165  1352.427
 166  1168.41
 167  1613.548
 168  1364.108
 169  1219.032
 170  1150.567
 171  1595.99
 172  1893.393
 173  1729.528
 174  1674.25
 175  1546.247
 176  1344.067
 177  1230.936
 178  1678.612
 179  1382.285
 180  1471.368
 181  1333.686
 182  1253.879
 183  1446.759
 184  1489.287
 185  1410.27
 186  1613.745
 187  1328.257
 188  1225.015
 189  1347.317
 190  1576.737
 191  1366.707
 192  1408.955
 193  1492.136
 194  1524.175
 195  1498.262
 196  1428.979
 197  1681.803
 198  1873.389
 199  1267.824
 200  1104.105
 201  1200.783
 202  1385.954
 203  1507.992
 204  1274.84
 205  979.5621
 206  1192.927
 207  1197.498
 208  1264.596
 209  919.9639
 210  1215.712
 211  1489.398
 212  1362.53
 213  1259.477
 214  1175.866
 215  1345.883
 216  1442.652
 217  1214.612
 218  1093.126
 219  1428.205
 220  1574.698
 221  1689.755
 222  1741.017
 223  1472.866
 224  1333.713
 225  1488.039
 226  1568.052
 227  1606.285
 228  1386.875
 229  1351.058
 230  1509.887
 231  1615.448
 232  1660.579
 233  1676.351
 234  1576.584
 235  1227.621
 236  1594.782
 237  1396.345
 238  1326.31
 239  1503.398
 240  1552.347
 241  1486.009
 242  1583.466
 243  1546.696
 244  1352.063
 245  1295.467
 246  1342.147
 247  1517.842
 248  1246.784
 249  1407.012
 250  1301.275
 251  1318.146
 252  1442.468
 253  1364.561
 254  1337.84
 255  1619.076
 256  1720.086
 257  1770.083
 258  1741.422
 259  1580.85
 260  1482.538
 261  1714.072
 262  1677.447
 263  1275.999
 264  1505.442
 265  1639.812
 266  1549.73
 267  1453.455
 268  1344.665
 269  1449.267
 270  1339.368
 271  1562.789
 272  1540.671
 273  1454.232
 274  1513.559
 275  1291.49
 276  1372.621
 277  1232.981
 278  1210.806
 279  1322.745
 280  1216.871
 281  1033.819
 282  1329.348
 283  1514.547
 284  1410.18
 285  1123.915
 286  1139.112
 287  1389.693
 288  1793.713
 289  1358.751
 290  1121.547
 291  1504.019
 292  1574.482
 293  1376.762
 294  1110.412
 295  1090.705
 296  1381.032
 297  1221.01
 298  1615.496
 299  1813.941
 300  1679.653
 301  1544.22
 302  1519.364
 303  1237.202
 304  1243.028
 305  1264.842
 306  1479.947
 307  1401.236
 308  1418.531
 309  1581.68
 310  1671.955
 311  1815.165
 312  1454.781
 313  1343.773
 314  1527.748
 315  1682.765
 316  1774.176
 317  1523.856
 318  1153.299
 319  1225.768
 320  1223.235
 321  1572.851
 322  1606.351
 323  1483.242
 324  1573.212
 325  1513.746
 326  1513.403
 327  1425.456
 328  1350.285
 329  1303.227
 330  1217.394
 331  1313.302
 332  1496.557
 333  1684.572
 334  1480.427
 335  1243.679
 336  1154.091
 337  1054.493
 338  1235.969
 339  1391.425
 340  1583.947
 341  1701.467
 342  1969.927
 343  1531.162
 344  1227.475
 345  1512.157
 346  1686.122
 347  1838.684
 348  1685.658
 349  1476.239
 350  1431.394
 351  1412.671
 352  1551.652
 353  1553.535
 354  1700.412
 355  1629.043
 356  1632.052
 357  1649.757
 358  1809.541
 359  1913.434
 360  1887.228
 361  1627.415
 362  1481.309
 363  1628.135
 364  1765.542
 365  1813.349
 366  1835.616
 367  1873.072
 368  1798.365
 369  1914.983
 370  1752.501
 371  1872.084
 372  1978.913
 373  1640.352
 374  1669.531
 375  2045.264
 376  1859.098
 377  1704.104
 378  1935.787
 379  1711.37
 380  1499.082
 381  1396.288
 382  1702.619
 383  2103.843
 384  2088.629
 385  2001.634
 386  1812.888
 387  1536.42
 388  1412.303
 389  1708.511
 390  1790.412
 391  1753.391
 392  1674.749
 393  1533.172
 394  1395.847
 395  1498.656
 396  1772.346
 397  2077.591
 398  1691.949
 399  1906.085
 400  1882.663
 401  1549.4
 402  1639.579
 403  2048.04
 404  1675.215
 405  1333.486
 406  1741.201
 407  1885.053
 408  1950.622
 409  1612.504
 410  1264.937
 411  1194.605
 412  1239.514
 413  1259.842
 414  1492.461
 415  1744.998
 416  1897.805
 417  1507.79
 418  1529.996
 419  1680.119
 420  1294.17
 421  1139.99
 422  1429.252
 423  1520.691
 424  1462.512
 425  1547.466
 426  1509.346
 427  1305.864
 428  1581.555
 429  1569.915
 430  1520.321
 431  1526.496
 432  1843.25
 433  1967.093
 434  1351.527
 435  1430.351
 436  1610.138
 437  1776.432
 438  1526.62
 439  1770.88
 440  1708.949
 441  1966.758
 442  1825.813
 443  1864.181
 444  1635.366
 445  1247.255
 446  1297.79
 447  1778.909
 448  1711.359
 449  1916.865
 450  1548.245
 451  1272.738
 452  1685.914
 453  2124.548
 454  1677.553
 455  1508.753
 456  1750.798
 457  1797.915
 458  1700.989
 459  1534.891
 460  1139.517
 461  1291.948
 462  1454.182
 463  1782.9
 464  1881.172
 465  1495.125
 466  1415.279
 467  1649.497
 468  1578.547
 469  1585.106
 470  1488.721
 471  1672.11
 472  1805.015
 473  1674.85
 474  1649.627
 475  1550.484
 476  1576.657
 477  1361.027
 478  1393.479
 479  1680.279
 480  1556.269
 481  1197.338
 482  1477.232
 483  1783.352
 484  1514.315
 485  1324.815
 486  1493.683
 487  1309.629
 488  1355.281
 489  1244.04
 490  1278.021
 491  1377.818
 492  1202.346
 493  1394.13
 494  1332.692
 495  1548.199
 496  1439.709
 497  1455.62
 498  1400.621
 499  1211.323
 500  1657.729
 501  1422.544
 502  1077.165
 503  1161.978
 504  1577.51
 505  1534.375
 506  1299.812
 507  1600.989
 508  1768.432
 509  1461.417
 510  1645.216
 511  1430.978
