# Input file       =  1212749416.100264_cleaned.dat
# Candidate        =  PSR_0332+5434
# Telescope        =  AR
# Epoch_topo       =  58280.451795141948
# Epoch_bary       =  N/A
# T_sample         =  0.002
# Data Folded      =  2293760
# Data Avg         =  17.8581060841247 
# Data StdDev      =  284.735342744602 
# Profile Bins     =  512
# Profile Avg      =  80004.2838750541 
# Profile StdDev   =  19058.134353271  
# Reduced chi-sqr  =  0.671
# Prob(Noise)      <  1   (~0.0 sigma)
# P_topo (ms)      =  714.507197646561  +/- 0.00278
# P'_topo (s/s)    =  -0                +/- 4.69e-09
# P''_topo (s/s^2) =  0                 +/- 6.63e-12
# P_bary (ms)      =  N/A
# P'_bary (s/s)    =  N/A
# P''_bary (s/s^2) =  N/A
# P_orb (s)        =  N/A
# asin(i)/c (s)    =  N/A
# eccentricity     =  N/A
# w (rad)          =  N/A
# T_peri           =  N/A
######################################################
   0  70180
   1  79797.15
   2  72417.14
   3  73259.1
   4  58107.96
   5  72210.84
   6  85661.7
   7  76924.62
   8  65132.82
   9  75167.55
  10  83935.12
  11  76979.91
  12  89065.77
  13  87211.28
  14  77472.06
  15  82434.66
  16  81217.98
  17  73826.98
  18  80300.97
  19  74368.45
  20  89418.21
  21  89407.33
  22  84712.88
  23  82143.41
  24  67486.95
  25  79056.23
  26  86624.29
  27  76843.47
  28  61095.46
  29  55939.5
  30  60241.59
  31  66403.95
  32  72800.8
  33  67153.16
  34  62658.94
  35  60478.18
  36  69402.78
  37  87815.77
  38  83309.09
  39  87169.64
  40  93266.66
  41  77938.79
  42  81239.62
  43  85994.16
  44  100713.5
  45  101813.9
  46  82839.63
  47  80661.77
  48  87281.66
  49  87654.31
  50  92591.66
  51  86373.5
  52  88457.77
  53  82688.1
  54  85507.81
  55  100021.3
  56  90358.09
  57  97196.22
  58  96492.24
  59  75572.41
  60  65942.19
  61  68000.95
  62  57209.24
  63  66795.4
  64  70205.02
  65  67362.78
  66  74880.41
  67  84370.35
  68  94719.35
  69  79008.59
  70  75062.38
  71  79434.02
  72  75669.96
  73  81123.43
  74  88422.61
  75  93347.11
  76  83640.87
  77  71311.73
  78  72686.54
  79  85311.05
  80  79361.33
  81  85630.48
  82  98004.25
  83  93525.92
  84  80287.42
  85  89424.69
  86  84286.65
  87  77994.26
  88  78081.29
  89  83664.13
  90  86764.66
  91  100354.7
  92  76455.26
  93  76077.33
  94  84535.42
  95  66174.45
  96  60307.61
  97  61314.1
  98  67447.73
  99  71837.15
 100  69386.42
 101  68599.9
 102  76737.52
 103  70363.76
 104  70913.98
 105  76571.62
 106  82151.03
 107  89230.86
 108  62305.01
 109  59870.44
 110  77187.08
 111  66844.73
 112  72516.92
 113  79126.84
 114  68647.27
 115  74222.62
 116  80806.86
 117  79202.56
 118  67506.73
 119  68052.54
 120  76880.91
 121  87420.23
 122  96413.31
 123  81027.09
 124  77124.4
 125  68156.48
 126  70819.63
 127  80174.71
 128  72929.21
 129  57845.81
 130  71725.73
 131  81522.66
 132  73854.05
 133  79203.38
 134  70999.02
 135  75917.98
 136  84220.73
 137  68815.09
 138  67325.04
 139  80126.75
 140  72254.66
 141  75385.69
 142  73222.09
 143  76995.03
 144  68972.34
 145  75840.71
 146  75392.43
 147  86090.82
 148  88320.94
 149  82914.89
 150  64931.62
 151  72805.27
 152  76079.2
 153  73689.27
 154  74779.56
 155  64630.64
 156  68046.68
 157  64546.68
 158  75512.84
 159  75615.2
 160  78449.42
 161  82284.32
 162  71080.2
 163  59653.23
 164  69767.45
 165  81249.16
 166  79285.53
 167  84698.77
 168  88203.08
 169  84473.61
 170  76582.49
 171  71758.15
 172  84972.77
 173  89642.9
 174  82990.02
 175  90818.09
 176  97087.96
 177  74935.89
 178  61318
 179  71344
 180  78949.28
 181  75456.38
 182  85352.65
 183  82846.98
 184  72277.39
 185  68095.59
 186  75189.64
 187  71002.21
 188  56222.92
 189  55707.91
 190  66483.08
 191  66110.71
 192  63987.93
 193  66104.96
 194  70319.68
 195  78462.49
 196  76809.03
 197  65414.36
 198  60216.5
 199  69716.1
 200  63945.82
 201  58762.38
 202  62681.08
 203  78347.93
 204  78253.72
 205  70750.27
 206  70210.81
 207  64036.74
 208  69968.83
 209  83273.41
 210  73715.29
 211  76532.38
 212  74325.69
 213  86352.96
 214  92178.06
 215  75351.69
 216  74636.34
 217  84773.27
 218  80038.84
 219  82372.7
 220  75075.84
 221  67802.22
 222  71533.39
 223  68774.89
 224  66285.58
 225  70133.88
 226  82341.18
 227  63157.22
 228  60116.11
 229  70611.85
 230  63542.3
 231  73878.9
 232  94385.34
 233  74091.73
 234  68503.14
 235  67545.47
 236  77718.34
 237  73248.16
 238  76011.43
 239  81281.39
 240  66712.19
 241  56889.9
 242  58882.94
 243  75951.79
 244  79190.36
 245  72804.72
 246  76592.52
 247  75676.88
 248  72776.24
 249  71262.2
 250  73734.62
 251  73018.81
 252  78667.87
 253  80661.88
 254  82592.42
 255  72098.68
 256  64530.86
 257  64088
 258  62659.54
 259  73163.95
 260  69114.29
 261  74198.34
 262  79539.51
 263  74624.91
 264  81845.91
 265  87013.43
 266  92881.15
 267  94269.74
 268  77511.15
 269  77857.73
 270  82397.27
 271  83339.05
 272  96277.8
 273  85877.81
 274  76742.17
 275  74094.8
 276  76067.82
 277  88303.97
 278  90147.03
 279  68788.27
 280  65197.75
 281  75417.13
 282  85863.59
 283  71569.2
 284  69525.61
 285  90613.3
 286  83846.26
 287  83096.23
 288  78179.73
 289  72905.74
 290  77850.05
 291  73385.02
 292  71657.94
 293  71363.94
 294  69810.77
 295  75556.74
 296  66511.67
 297  71849.3
 298  67409.09
 299  83949.36
 300  72012.22
 301  51632.45
 302  68369.13
 303  78066.3
 304  73493.12
 305  70112.09
 306  68790.78
 307  71618.43
 308  60916.71
 309  67598.38
 310  70927.65
 311  78311.77
 312  83650.23
 313  84538.81
 314  89749.05
 315  82521.8
 316  79318.19
 317  78126.33
 318  73059.69
 319  68035.52
 320  60709.18
 321  64529.27
 322  69828.9
 323  74409.76
 324  72542.5
 325  71678.85
 326  69875.76
 327  76413.48
 328  90545.88
 329  88772.55
 330  93484.44
 331  88674.59
 332  82496
 333  76865.52
 334  77848.12
 335  76981.16
 336  74320.1
 337  75217.22
 338  74846.75
 339  72972.91
 340  80737.79
 341  82953.66
 342  88993.48
 343  91007.95
 344  97751.09
 345  83274.57
 346  80252.54
 347  82165.81
 348  81438.32
 349  95659.81
 350  106752.8
 351  110844
 352  98027.35
 353  101148.5
 354  94363.28
 355  84926.98
 356  98263.35
 357  103337
 358  87604.65
 359  85689.16
 360  93705.23
 361  92394.25
 362  85008.56
 363  109599
 364  107845.3
 365  98472.27
 366  94792.73
 367  93152.38
 368  95917.55
 369  88083.4
 370  103745.1
 371  114199.3
 372  105365.6
 373  93463.78
 374  88308.52
 375  101161.6
 376  95713.96
 377  100785.5
 378  96462.9
 379  80307.65
 380  79364.22
 381  90666.02
 382  85465.11
 383  79715.07
 384  103300.1
 385  99178.47
 386  88588.06
 387  87277.74
 388  85473.94
 389  71535.98
 390  74783.56
 391  82882.71
 392  78246.82
 393  72764.5
 394  64545.09
 395  63563.5
 396  76349.3
 397  76282.24
 398  96516.6
 399  85215.36
 400  86603.41
 401  90379.09
 402  92227.59
 403  89460.76
 404  100156.1
 405  101580.6
 406  105368.4
 407  76605.01
 408  69780.9
 409  77133.67
 410  87575.57
 411  109087.3
 412  93704.64
 413  88166.09
 414  83417.01
 415  95850.83
 416  88930.58
 417  93331.83
 418  84722.13
 419  84941.18
 420  89390.16
 421  78617.11
 422  84791.9
 423  87782.51
 424  90601.55
 425  100450.3
 426  93305.09
 427  104742.9
 428  85505.44
 429  79721.59
 430  98597.95
 431  103855.8
 432  89910.25
 433  103467.1
 434  99066.23
 435  98968.14
 436  98038.83
 437  107754.2
 438  96865.54
 439  99322.3
 440  119166.7
 441  99206.99
 442  77328.82
 443  86467.29
 444  96214.95
 445  83864.84
 446  76186.16
 447  97640.68
 448  88336.48
 449  87739.49
 450  92189.3
 451  89852.45
 452  91845.13
 453  84760.3
 454  77702.91
 455  96198.24
 456  95000.28
 457  96691.6
 458  81387.52
 459  80217.27
 460  87300.34
 461  89020.05
 462  87506.62
 463  82248.48
 464  87804.68
 465  94352.43
 466  90051.54
 467  84184.6
 468  80564.42
 469  78343.45
 470  84036.92
 471  91578.69
 472  96906.67
 473  92409.46
 474  70600.38
 475  61850.38
 476  58388.5
 477  69070.24
 478  67862.59
 479  76786.04
 480  78460.97
 481  79728.74
 482  78555.36
 483  81109.17
 484  77112.02
 485  85046.5
 486  90030.75
 487  93411.34
 488  93257.05
 489  96110.2
 490  86702.41
 491  72999.67
 492  74212.08
 493  73238.22
 494  86501.46
 495  86991.58
 496  82960.92
 497  82450.93
 498  78024.05
 499  69403.6
 500  67477.71
 501  74765.36
 502  69884.67
 503  66680.31
 504  60240.29
 505  74778.23
 506  73053.08
 507  66001.69
 508  71727.61
 509  76206.03
 510  85027.12
 511  86572.77
