# Input file       =  1212217597.124563_cleaned.dat
# Candidate        =  PSR_0332+5434
# Telescope        =  AR
# Epoch_topo       =  58274.296482923186
# Epoch_bary       =  N/A
# T_sample         =  0.002
# Data Folded      =  7340032
# Data Avg         =  0.0407591535012902
# Data StdDev      =  1.00003300466384 
# Profile Bins     =  512
# Profile Avg      =  584.668171451481 
# Profile StdDev   =  119.736988125382 
# Reduced chi-sqr  =  1.573
# Prob(Noise)      <  2.1e-15   (~7.8 sigma)
# P_topo (ms)      =  714.512772225565  +/- 0.000406
# P'_topo (s/s)    =  -0                +/- 2.14e-10
# P''_topo (s/s^2) =  0                 +/- 9.46e-14
# P_bary (ms)      =  N/A
# P'_bary (s/s)    =  N/A
# P''_bary (s/s^2) =  N/A
# P_orb (s)        =  N/A
# asin(i)/c (s)    =  N/A
# eccentricity     =  N/A
# w (rad)          =  N/A
# T_peri           =  N/A
######################################################
   0  1105.096
   1  1040.27
   2  762.7104
   3  600.3244
   4  642.1554
   5  662.1959
   6  575.7478
   7  556.6666
   8  443.0981
   9  530.7667
  10  565.1269
  11  494.857
  12  571.708
  13  699.9545
  14  664.7343
  15  624.1425
  16  568.979
  17  597.4602
  18  568.5432
  19  651.2637
  20  600.4631
  21  539.356
  22  589.6706
  23  570.2098
  24  494.6753
  25  568.1622
  26  663.4533
  27  549.4482
  28  463.4265
  29  444.5928
  30  572.9363
  31  666.2263
  32  561.5906
  33  450.8574
  34  459.6371
  35  637.7425
  36  554.5889
  37  527.6575
  38  548.413
  39  561.7247
  40  567.6534
  41  591.4357
  42  632.8445
  43  592.1771
  44  656.2278
  45  585.0945
  46  560.563
  47  636.853
  48  530.4023
  49  429.1064
  50  545.9857
  51  570.0479
  52  567.6221
  53  560.7949
  54  559.2078
  55  547.6634
  56  508.5662
  57  531.5297
  58  607.506
  59  593.2023
  60  657.551
  61  722.4078
  62  546.5557
  63  528.7656
  64  553.7901
  65  560.7261
  66  573.5654
  67  602.3856
  68  660.7619
  69  582.4316
  70  619.7171
  71  623.0609
  72  642.6689
  73  564.916
  74  535.3549
  75  627.429
  76  640.777
  77  589.9694
  78  564.0716
  79  669.1629
  80  683.6362
  81  596.7255
  82  657.2455
  83  657.7741
  84  651.1158
  85  592.4419
  86  710.8213
  87  599.0744
  88  603.5896
  89  446.1871
  90  497.95
  91  586.4156
  92  524.4415
  93  561.4005
  94  532.0247
  95  563.2278
  96  510.9772
  97  550.841
  98  604.6875
  99  617.3018
 100  576.3447
 101  601.746
 102  600.0955
 103  575.4477
 104  609.3335
 105  615.4702
 106  576.5434
 107  632.515
 108  579.3193
 109  565.5832
 110  581.6197
 111  531.9967
 112  579.864
 113  530.7009
 114  568.8453
 115  564.9232
 116  664.9669
 117  673.1509
 118  656.0144
 119  635.2695
 120  717.1348
 121  729.2923
 122  689.2147
 123  642.0943
 124  568.6425
 125  643.2579
 126  674.9586
 127  692.7706
 128  671.2425
 129  593.504
 130  635.2829
 131  602.5823
 132  614.1319
 133  662.5088
 134  709.006
 135  597.4823
 136  603.2762
 137  597.4736
 138  665.2278
 139  732.1252
 140  600.7299
 141  596.0812
 142  598.8249
 143  712.7081
 144  850.7609
 145  726.2346
 146  726.6041
 147  661.58
 148  672.6208
 149  730.7192
 150  769.1035
 151  788.6376
 152  693.0791
 153  552.3201
 154  710.062
 155  661.5638
 156  651.6715
 157  662.7174
 158  746.9959
 159  637.5363
 160  657.2412
 161  647.4434
 162  653.6616
 163  690.4494
 164  670.887
 165  741.6931
 166  652.4687
 167  635.5796
 168  661.5453
 169  678.8931
 170  727.3528
 171  714.0041
 172  689.4254
 173  654.6876
 174  693.8593
 175  637.4893
 176  650.827
 177  589.7561
 178  565.5851
 179  546.6783
 180  650.8763
 181  752.7827
 182  674.4399
 183  676.1713
 184  643.9775
 185  626.3447
 186  634.5413
 187  644.2451
 188  774.5388
 189  684.0673
 190  567.8391
 191  659.8539
 192  670.3354
 193  743.071
 194  788.9913
 195  794.7543
 196  735.5502
 197  706.3604
 198  853.647
 199  719.3258
 200  675.8716
 201  653.314
 202  747.5763
 203  749.4174
 204  700.8801
 205  679.0095
 206  785.2819
 207  780.8199
 208  760.589
 209  679.5427
 210  726.7546
 211  612.1366
 212  720.6671
 213  792.7955
 214  763.1072
 215  665.7636
 216  676.1489
 217  713.35
 218  742.5874
 219  820.7239
 220  773.674
 221  698.8243
 222  713.5469
 223  736.0405
 224  728.23
 225  656.5189
 226  658.8079
 227  698.232
 228  586.6968
 229  585.2986
 230  654.7018
 231  676.2837
 232  697.109
 233  677.5755
 234  607.1901
 235  474.8281
 236  415.7083
 237  534.2122
 238  577.0883
 239  692.662
 240  652.5178
 241  579.3762
 242  623.6239
 243  623.0992
 244  510.7902
 245  531.7017
 246  626.1047
 247  598.2587
 248  564.6375
 249  628.977
 250  636.3549
 251  634.2153
 252  696.111
 253  593.0941
 254  645.5312
 255  683.1144
 256  594.6794
 257  567.2297
 258  511.8383
 259  605.7174
 260  629.8406
 261  569.9604
 262  632.463
 263  586.5419
 264  714.9839
 265  645.1942
 266  635.2494
 267  663.6132
 268  670.5602
 269  646.0123
 270  669.6792
 271  614.0872
 272  524.6964
 273  518.123
 274  507.3021
 275  435.2918
 276  542.2255
 277  632.743
 278  644.4877
 279  660.3809
 280  613.4709
 281  620.4471
 282  657.8463
 283  600.8245
 284  510.9615
 285  613.3618
 286  642.4973
 287  609.1082
 288  646.778
 289  668.5134
 290  628.2678
 291  563.7147
 292  597.7803
 293  715.9019
 294  689.103
 295  666.5452
 296  668.3085
 297  816.833
 298  678.7861
 299  588.5093
 300  682.5381
 301  650.8762
 302  629.181
 303  589.529
 304  570.4278
 305  595.6312
 306  528.2767
 307  598.0477
 308  615.9221
 309  614.6378
 310  616.8438
 311  627.1757
 312  604.1124
 313  638.2692
 314  659.4819
 315  658.8561
 316  655.0945
 317  728.4714
 318  537.3367
 319  588.6528
 320  622.8243
 321  555.4648
 322  520.6864
 323  606.1448
 324  669.8259
 325  699.5048
 326  639.5084
 327  489.8969
 328  568.6334
 329  562.681
 330  683.0947
 331  592.925
 332  566.0078
 333  532.9432
 334  439.1064
 335  462.0103
 336  530.6095
 337  617.2922
 338  719.7214
 339  688.8995
 340  550.574
 341  594.5536
 342  564.322
 343  457.8557
 344  455.9263
 345  453.5766
 346  458.8127
 347  579.786
 348  534.7765
 349  555.1349
 350  570.9332
 351  482.1916
 352  433.3442
 353  341.2804
 354  463.9638
 355  458.769
 356  516.8187
 357  525.5594
 358  621.301
 359  562.2706
 360  644.5798
 361  563.0255
 362  465.2996
 363  544.8834
 364  526.8062
 365  488.2621
 366  563.123
 367  586.9645
 368  653.3297
 369  651.0349
 370  611.9075
 371  550.2141
 372  517.1494
 373  504.5063
 374  579.5204
 375  515.1091
 376  551.9781
 377  450.5196
 378  494.9536
 379  604.2751
 380  539.6705
 381  548.4544
 382  555.5796
 383  534.5004
 384  529.6239
 385  452.2332
 386  477.1002
 387  570.5012
 388  587.1722
 389  555.4634
 390  473.3682
 391  405.2275
 392  412.2879
 393  417.0683
 394  371.9803
 395  414.0146
 396  517.649
 397  494.9612
 398  629.4365
 399  592.5774
 400  567.7179
 401  544.6686
 402  409.5465
 403  366.6266
 404  307.8199
 405  428.9925
 406  549.8278
 407  555.2345
 408  497.3687
 409  510.9561
 410  511.8338
 411  473.7705
 412  484.3774
 413  397.6406
 414  451.1092
 415  441.7232
 416  415.0021
 417  404.0644
 418  400.024
 419  473.3515
 420  503.7164
 421  623.095
 422  511.0417
 423  380.6209
 424  409.5417
 425  514.9953
 426  546.7722
 427  481.3386
 428  521.2093
 429  552.0172
 430  470.3058
 431  485.7495
 432  506.347
 433  584.9861
 434  593.0933
 435  445.937
 436  496.4088
 437  517.8319
 438  413.4875
 439  430.2661
 440  394.7178
 441  497.0569
 442  540.9379
 443  400.9941
 444  393.3945
 445  382.0187
 446  514.3298
 447  635.6497
 448  543.115
 449  523.0511
 450  604.55
 451  460.0679
 452  390.7636
 453  435.2719
 454  520.2529
 455  455.183
 456  452.4582
 457  436.1886
 458  373.1733
 459  334.1775
 460  320.5051
 461  349.9203
 462  519.1578
 463  527.198
 464  479.4245
 465  429.742
 466  387.4725
 467  370.7743
 468  426.3283
 469  543.0181
 470  514.6133
 471  488.4453
 472  495.4641
 473  475.1379
 474  367.8704
 475  368.7057
 476  333.1711
 477  309.0444
 478  421.5196
 479  527.5421
 480  449.9839
 481  548.2715
 482  601.3571
 483  530.842
 484  456.4725
 485  394.9645
 486  450.7125
 487  548.5941
 488  520.6749
 489  468.3668
 490  472.6419
 491  533.0728
 492  542.033
 493  403.6662
 494  399.3485
 495  456.9164
 496  520.7264
 497  371.7151
 498  283.6611
 499  463.5575
 500  550.7029
 501  590.6337
 502  527.4632
 503  439.4965
 504  402.494
 505  570.4502
 506  662.6884
 507  573.1738
 508  693.3978
 509  857.6351
 510  992.3711
 511  1114.642
