# Input file       =  1212648328.110973_cleaned.dat
# Candidate        =  PSR_0332+5434
# Telescope        =  AR
# Epoch_topo       =  58279.281795265888
# Epoch_bary       =  N/A
# T_sample         =  0.002
# Data Folded      =  7340032
# Data Avg         =  -0.075089584867654
# Data StdDev      =  4.82528922764833 
# Profile Bins     =  1024
# Profile Avg      =  -538.295579935321
# Profile StdDev   =  408.528489610125 
# Reduced chi-sqr  =  0.753
# Prob(Noise)      <  1   (~0.0 sigma)
# P_topo (ms)      =  714.507978919938  +/- 0.000429
# P'_topo (s/s)    =  -0                +/- 2.26e-10
# P''_topo (s/s^2) =  0                 +/- 9.99e-14
# P_bary (ms)      =  N/A
# P'_bary (s/s)    =  N/A
# P''_bary (s/s^2) =  N/A
# P_orb (s)        =  N/A
# asin(i)/c (s)    =  N/A
# eccentricity     =  N/A
# w (rad)          =  N/A
# T_peri           =  N/A
######################################################
   0  -689.1684
   1  -623.172
   2  -500.3342
   3  -485.2136
   4  -474.6329
   5  -418.0218
   6  -475.4561
   7  -466.4449
   8  -470.1205
   9  -421.4001
  10  -621.6763
  11  -537.1209
  12  -451.7141
  13  -417.3556
  14  -505.3811
  15  -557.0176
  16  -529.723
  17  -594.1409
  18  -604.5473
  19  -550.7427
  20  -775.6456
  21  -944.317
  22  -832.917
  23  -550.5557
  24  -431.4674
  25  -596.687
  26  -732.7147
  27  -735.6619
  28  -642.2946
  29  -607.7181
  30  -659.9582
  31  -888.8225
  32  -914.7774
  33  -1049.721
  34  -867.3747
  35  -832.1576
  36  -707.3879
  37  -620.7463
  38  -642.6292
  39  -644.5145
  40  -640.3412
  41  -606.7177
  42  -536.8364
  43  -441.2917
  44  -344.501
  45  -308.2318
  46  -338.9258
  47  -370.7452
  48  -430.9305
  49  -527.8925
  50  -534.4253
  51  -403.5143
  52  -260.2962
  53  -226.8203
  54  -368.5092
  55  -429.0641
  56  -566.0594
  57  -441.5215
  58  -533.9688
  59  -407.3391
  60  -397.8609
  61  -459.9113
  62  -477.0448
  63  -463.7982
  64  -477.4946
  65  -434.5181
  66  -276.0948
  67  -177.2069
  68  -293.9877
  69  -560.0016
  70  -751.0417
  71  -842.2358
  72  -885.9802
  73  -807.6551
  74  -633.5742
  75  -551.989
  76  -435.4434
  77  -520.2742
  78  -359.5068
  79  -278.4071
  80  -234.8248
  81  -336.0898
  82  -515.8915
  83  -627.6265
  84  -701.986
  85  -698.2265
  86  -580.4816
  87  -354.7261
  88  -222.613
  89  -223.7397
  90  -225.3481
  91  -231.5339
  92  -212.2589
  93  -321.6454
  94  -489.7473
  95  -445.668
  96  -678.4561
  97  -579.0942
  98  -541.1226
  99  -338.7371
 100  -372.0111
 101  -443.044
 102  -578.9214
 103  -618.0079
 104  -571.6805
 105  -403.1527
 106  -280.6889
 107  -310.3508
 108  -422.6547
 109  -510.6056
 110  -512.9271
 111  -402.7173
 112  -450.1362
 113  -268.7628
 114  -244.3293
 115  -287.9325
 116  -401.5062
 117  -436.7309
 118  -318.102
 119  -469.1716
 120  -592.4535
 121  -553.1128
 122  -483.7506
 123  -510.2387
 124  -555.7957
 125  -468.8113
 126  -457.2493
 127  -432.5171
 128  -397.4264
 129  -309.8202
 130  -490.8491
 131  -741.3744
 132  -667.9819
 133  -475.6171
 134  -305.7041
 135  -239.0522
 136  -191.6812
 137  -229.1854
 138  -313.1403
 139  -384.2299
 140  -539.6194
 141  -540.9485
 142  -484.5963
 143  -502.4369
 144  -646.2321
 145  -608.2173
 146  -696.5287
 147  -778.1154
 148  -745.0596
 149  -520.5605
 150  -362.1931
 151  -351.1959
 152  -467.8553
 153  -655.658
 154  -695.5162
 155  -755.8242
 156  -821.3338
 157  -810.024
 158  -652.2428
 159  -517.1779
 160  -556.3704
 161  -678.1586
 162  -723.03
 163  -526.3835
 164  -304.6176
 165  -332.3875
 166  -300.035
 167  -363.3358
 168  -360.8999
 169  -403.1924
 170  -341.907
 171  -414.9119
 172  -445.3685
 173  -361.0569
 174  -201.8423
 175  -288.5676
 176  -371.5141
 177  -463.4434
 178  -479.6968
 179  -526.6733
 180  -453.9236
 181  -318.4892
 182  -181.771
 183  -353.3015
 184  -529.1713
 185  -531.4273
 186  -450.3339
 187  -424.5951
 188  -384.2544
 189  -379.5653
 190  -508.0396
 191  -645.923
 192  -664.2355
 193  -567.0908
 194  -585.1811
 195  -515.9943
 196  -456.0686
 197  -379.7483
 198  -531.2064
 199  -697.6595
 200  -695.5123
 201  -719.3026
 202  -747.1502
 203  -655.5322
 204  -456.0687
 205  -446.0595
 206  -468.6318
 207  -360.1006
 208  -320.5661
 209  -355.4018
 210  -485.2592
 211  -428.0648
 212  -552.6885
 213  -678.502
 214  -651.6045
 215  -522.8868
 216  -461.8769
 217  -491.0937
 218  -453.2101
 219  -549.1706
 220  -599.9294
 221  -676.5633
 222  -695.0367
 223  -592.4877
 224  -738.0128
 225  -798.8498
 226  -828.209
 227  -643.1486
 228  -381.6963
 229  -402.7296
 230  -436.0989
 231  -626.2472
 232  -743.6932
 233  -716.553
 234  -621.5237
 235  -547.6019
 236  -618.6479
 237  -637.5684
 238  -483.8596
 239  -446.0389
 240  -625.3891
 241  -639.5786
 242  -453.7122
 243  -372.5471
 244  -385.1007
 245  -619.3212
 246  -528.5385
 247  -601.5579
 248  -457.5836
 249  -464.0484
 250  -418.5267
 251  -330.7125
 252  -305.1803
 253  -301.0106
 254  -347.7255
 255  -372.7268
 256  -390.7046
 257  -373.9339
 258  -379.4889
 259  -341.4885
 260  -334.432
 261  -320.9711
 262  -437.2016
 263  -600.1072
 264  -676.8093
 265  -567.4177
 266  -479.6104
 267  -517.1306
 268  -580.9554
 269  -644.8989
 270  -642.2004
 271  -607.2333
 272  -478.8086
 273  -422.9836
 274  -311.7058
 275  -309.4286
 276  -355.7083
 277  -502.0966
 278  -515.9399
 279  -410.4138
 280  -435.3277
 281  -370.4566
 282  -276.7903
 283  -260.2653
 284  -570.2708
 285  -695.1126
 286  -638.681
 287  -371.719
 288  -149.0968
 289  119.5277
 290  164.2953
 291  -87.64722
 292  -278.904
 293  -493.1507
 294  -555.8003
 295  -582.709
 296  -561.9373
 297  -453.5845
 298  -498.3036
 299  -495.9246
 300  -638.1237
 301  -705.2179
 302  -636.4134
 303  -403.9395
 304  -230.8944
 305  -245.4022
 306  -369.241
 307  -484.5529
 308  -586.4533
 309  -679.9975
 310  -734.956
 311  -703.5403
 312  -587.9608
 313  -463.1325
 314  -477.8454
 315  -530.6612
 316  -481.1985
 317  -564.5015
 318  -568.5626
 319  -708.7851
 320  -632.3534
 321  -651.5306
 322  -571.0196
 323  -722.7968
 324  -808.5845
 325  -696.8647
 326  -544.2807
 327  -355.2506
 328  -252.3403
 329  -186.7238
 330  -234.0623
 331  -430.3778
 332  -586.7174
 333  -746.2426
 334  -713.8465
 335  -703.7227
 336  -559.1253
 337  -635.3239
 338  -665.4769
 339  -657.6329
 340  -619.1253
 341  -702.4974
 342  -626.0386
 343  -525.8694
 344  -395.76
 345  -466.1144
 346  -494.6865
 347  -667.6094
 348  -561.0296
 349  -530.614
 350  -365.0238
 351  -404.8908
 352  -502.8058
 353  -623.7822
 354  -594.2032
 355  -604.1624
 356  -494.9517
 357  -560.7245
 358  -445.188
 359  -287.2541
 360  -352.5482
 361  -390.726
 362  -475.9462
 363  -361.703
 364  -278.3321
 365  -436.6971
 366  -555.2037
 367  -720.333
 368  -703.0859
 369  -773.0961
 370  -793.836
 371  -704.8772
 372  -503.2287
 373  -382.6945
 374  -364.2412
 375  -373.5321
 376  -425.5619
 377  -492.0069
 378  -599.1471
 379  -520.108
 380  -358.4361
 381  -315.955
 382  -403.8151
 383  -519.0683
 384  -726.0374
 385  -715.8295
 386  -527.6315
 387  -390.6887
 388  -374.1362
 389  -428.3176
 390  -396.2351
 391  -377.3104
 392  -408.2993
 393  -361.1682
 394  -318.626
 395  -358.9178
 396  -573.7177
 397  -662.0917
 398  -668.4436
 399  -479.3246
 400  -392.9266
 401  -405.2947
 402  -540.759
 403  -689.4536
 404  -731.0906
 405  -519.3202
 406  -479.778
 407  -388.1324
 408  -467.9658
 409  -380.3766
 410  -416.3729
 411  -461.9779
 412  -380.4799
 413  -495.7331
 414  -575.0352
 415  -736.1915
 416  -690.1297
 417  -672.4103
 418  -588.8639
 419  -531.3284
 420  -332.8405
 421  -182.2725
 422  -84.04465
 423  -126.8715
 424  -192.2196
 425  -218.9291
 426  -207.7545
 427  -236.1191
 428  -214.6955
 429  -210.8461
 430  -142.2484
 431  -269.72
 432  -312.8162
 433  -459.2333
 434  -557.4317
 435  -495.8637
 436  -481.8307
 437  -428.9359
 438  -539.3934
 439  -602.795
 440  -683.7311
 441  -774.232
 442  -691.2344
 443  -627.931
 444  -542.6981
 445  -494.8294
 446  -579.257
 447  -717.2778
 448  -906.6575
 449  -868.5943
 450  -804.2997
 451  -752.8588
 452  -825.4007
 453  -749.1033
 454  -664.4595
 455  -626.5497
 456  -695.9927
 457  -713.3242
 458  -837.0696
 459  -951.1174
 460  -906.6163
 461  -813.2159
 462  -639.5067
 463  -652.0906
 464  -693.8884
 465  -845.3423
 466  -917.2249
 467  -927.7897
 468  -925.1168
 469  -727.6711
 470  -555.873
 471  -563.2677
 472  -706.8557
 473  -704.6959
 474  -765.7872
 475  -773.3976
 476  -791.8726
 477  -772.3476
 478  -804.1688
 479  -664.3849
 480  -440.9246
 481  -431.2453
 482  -567.205
 483  -795.8965
 484  -788.5251
 485  -820.6319
 486  -874.6922
 487  -889.5107
 488  -925.7638
 489  -797.2021
 490  -810.6722
 491  -670.2175
 492  -614.2891
 493  -557.418
 494  -668.2986
 495  -735.6738
 496  -753.4843
 497  -764.1761
 498  -754.0887
 499  -641.7584
 500  -652.1009
 501  -658.0185
 502  -740.3401
 503  -624.6194
 504  -690.5988
 505  -642.4248
 506  -732.0444
 507  -597.3646
 508  -428.175
 509  -352.744
 510  -327.3497
 511  -457.1365
 512  -483.2156
 513  -465.9554
 514  -551.2027
 515  -557.1443
 516  -715.1819
 517  -560.1043
 518  -584.2996
 519  -657.0097
 520  -667.1884
 521  -637.4626
 522  -579.0612
 523  -619.6285
 524  -575.7482
 525  -500.5267
 526  -466.8672
 527  -514.089
 528  -564.5378
 529  -528.4825
 530  -556.8468
 531  -589.3479
 532  -649.8583
 533  -690.0321
 534  -603.4092
 535  -553.0259
 536  -511.7076
 537  -613.5001
 538  -638.0867
 539  -532.5311
 540  -429.8017
 541  -402.7189
 542  -413.1004
 543  -424.5705
 544  -440.6355
 545  -453.1418
 546  -358.2972
 547  -394.0065
 548  -382.0942
 549  -466.4206
 550  -419.8755
 551  -406.6646
 552  -533.5861
 553  -526.4077
 554  -391.5507
 555  -283.8917
 556  -478.3593
 557  -676.9598
 558  -712.7858
 559  -558.1283
 560  -608.4521
 561  -531.8074
 562  -456.5352
 563  -397.6022
 564  -360.8505
 565  -511.5328
 566  -574.3073
 567  -760.1202
 568  -879.9813
 569  -774.0262
 570  -464.3686
 571  -411.7479
 572  -380.7934
 573  -462.8703
 574  -534.299
 575  -665.6413
 576  -460.7408
 577  -402.4547
 578  -428.7919
 579  -532.9529
 580  -536.2083
 581  -517.3797
 582  -531.0007
 583  -384.1805
 584  -239.3219
 585  -244.6356
 586  -265.1935
 587  -153.2836
 588  -18.29516
 589  -89.1349
 590  -98.38388
 591  -27.94038
 592  267.0312
 593  229.9496
 594  385.8291
 595  543.3314
 596  501.9656
 597  435.3878
 598  340.8253
 599  439.5139
 600  226.4846
 601  24.69578
 602  10.22058
 603  15.33259
 604  -219.6899
 605  -537.8285
 606  -535.2305
 607  -529.8409
 608  -599.6538
 609  -639.4623
 610  -469.9552
 611  -528.3535
 612  -765.8963
 613  -833.4536
 614  -761.5042
 615  -653.6174
 616  -622.867
 617  -503.3575
 618  -259.7751
 619  -286.9355
 620  -349.5146
 621  -474.9783
 622  -412.5602
 623  -414.0635
 624  -401.8054
 625  -240.5209
 626  -343.3026
 627  -378.7923
 628  -477.6024
 629  -548.651
 630  -544.9866
 631  -656.3602
 632  -657.8321
 633  -639.7158
 634  -511.9674
 635  -546.3351
 636  -541.8199
 637  -620.3889
 638  -715.8058
 639  -810.9531
 640  -718.0836
 641  -596.318
 642  -556.1948
 643  -569.9811
 644  -521.0544
 645  -587.1265
 646  -575.0115
 647  -720.8587
 648  -672.6443
 649  -789.5061
 650  -870.4727
 651  -1032.898
 652  -1029.073
 653  -1004.329
 654  -892.3151
 655  -721.7271
 656  -773.4557
 657  -697.6926
 658  -826.0233
 659  -667.1139
 660  -628.91
 661  -549.1473
 662  -430.3745
 663  -414.0899
 664  -324.4163
 665  -506.5251
 666  -694.5833
 667  -839.7526
 668  -837.2291
 669  -705.4171
 670  -803.9797
 671  -748.6459
 672  -702.9647
 673  -448.9336
 674  -431.2867
 675  -589.6181
 676  -656.3655
 677  -613.017
 678  -508.1441
 679  -513.3529
 680  -606.1062
 681  -673.9111
 682  -751.1163
 683  -625.4869
 684  -708.7786
 685  -747.7571
 686  -820.3262
 687  -674.6581
 688  -507.9057
 689  -551.0498
 690  -602.1101
 691  -742.7633
 692  -669.2811
 693  -725.7324
 694  -676.3332
 695  -603.0634
 696  -459.421
 697  -367.7441
 698  -553.7113
 699  -538.1645
 700  -583.4914
 701  -643.1387
 702  -731.1998
 703  -679.4011
 704  -582.0583
 705  -640.9501
 706  -671.614
 707  -756.0145
 708  -735.853
 709  -584.0173
 710  -466.4139
 711  -396.9068
 712  -576.0046
 713  -616.2939
 714  -704.0961
 715  -730.0131
 716  -818.0861
 717  -934.8413
 718  -834.5022
 719  -699.7198
 720  -523.8312
 721  -661.4193
 722  -668.2119
 723  -644.0087
 724  -551.3488
 725  -638.721
 726  -746.9474
 727  -695.1964
 728  -798.7092
 729  -827.5665
 730  -955.0355
 731  -912.1807
 732  -835.7143
 733  -712.7464
 734  -698.304
 735  -610.7147
 736  -467.0528
 737  -422.0883
 738  -438.9808
 739  -656.2242
 740  -742.985
 741  -663.1321
 742  -744.4328
 743  -710.7318
 744  -817.2335
 745  -832.4812
 746  -743.9006
 747  -510.7728
 748  -301.9632
 749  -337.6659
 750  -333.0952
 751  -381.0565
 752  -339.1223
 753  -415.0962
 754  -461.1094
 755  -419.3571
 756  -448.7196
 757  -490.5505
 758  -626.5121
 759  -689.938
 760  -618.5521
 761  -639.5239
 762  -461.6633
 763  -527.8365
 764  -550.2974
 765  -547.2008
 766  -557.2451
 767  -483.7826
 768  -612.6686
 769  -707.4976
 770  -814.0985
 771  -753.3167
 772  -568.563
 773  -485.4951
 774  -391.145
 775  -469.3056
 776  -620.9036
 777  -766.6931
 778  -665.1295
 779  -632.1675
 780  -686.1166
 781  -773.2645
 782  -749.9294
 783  -659.7159
 784  -639.2296
 785  -521.3245
 786  -424.3369
 787  -310.8434
 788  -307.2522
 789  -419.6133
 790  -606.8837
 791  -688.0671
 792  -681.8593
 793  -535.0527
 794  -510.5757
 795  -512.0103
 796  -480.7396
 797  -384.5443
 798  -492.9757
 799  -627.341
 800  -596.468
 801  -431.3861
 802  -440.3185
 803  -563.1321
 804  -596.4386
 805  -642.0383
 806  -552.9757
 807  -565.7973
 808  -412.8235
 809  -358.9477
 810  -293.2302
 811  -351.3074
 812  -435.606
 813  -504.3759
 814  -482.8668
 815  -651.8983
 816  -555.5816
 817  -542.1159
 818  -375.9948
 819  -383.9708
 820  -354.0497
 821  -330.6874
 822  -285.5911
 823  -228.1106
 824  -225.4614
 825  -189.3614
 826  -254.0947
 827  -60.89589
 828  -120.6108
 829  -204.5252
 830  -547.8751
 831  -536.7908
 832  -315.8632
 833  -249.7602
 834  -296.404
 835  -514.5557
 836  -522.9935
 837  -551.1371
 838  -430.3148
 839  -500.8359
 840  -451.69
 841  -531.997
 842  -470.5295
 843  -419.2886
 844  -378.4449
 845  -379.8283
 846  -482.0682
 847  -501.8876
 848  -535.5369
 849  -518.0676
 850  -611.56
 851  -626.8621
 852  -591.2806
 853  -617.9904
 854  -706.8413
 855  -677.4354
 856  -491.0541
 857  -320.3242
 858  -250.1863
 859  -262.6164
 860  -307.5173
 861  -447.7061
 862  -543.6466
 863  -636.5551
 864  -535.7275
 865  -613.2209
 866  -643.4454
 867  -674.2024
 868  -517.0598
 869  -459.0536
 870  -433.4056
 871  -442.6849
 872  -571.2411
 873  -656.8122
 874  -652.4228
 875  -647.496
 876  -746.2683
 877  -762.9478
 878  -683.6945
 879  -678.2867
 880  -721.5571
 881  -782.7874
 882  -755.1016
 883  -768.8134
 884  -842.8927
 885  -741.1261
 886  -553.1739
 887  -350.7488
 888  -372.9677
 889  -465.269
 890  -544.1963
 891  -554.972
 892  -582.3922
 893  -538.78
 894  -669.9728
 895  -659.5645
 896  -749.527
 897  -690.0497
 898  -705.7759
 899  -737.3682
 900  -761.8465
 901  -716.1709
 902  -749.3643
 903  -743.7848
 904  -745.3836
 905  -636.1183
 906  -765.6962
 907  -668.884
 908  -707.0803
 909  -654.0967
 910  -603.9083
 911  -468.6722
 912  -397.9137
 913  -489.4338
 914  -633.6334
 915  -661.5754
 916  -765.0565
 917  -885.7411
 918  -951.6611
 919  -942.636
 920  -710.8868
 921  -721.8549
 922  -780.3254
 923  -876.0932
 924  -821.6769
 925  -654.8243
 926  -586.8728
 927  -425.6238
 928  -452.1512
 929  -510.1007
 930  -604.9218
 931  -721.9347
 932  -858.1263
 933  -797.1575
 934  -712.6377
 935  -588.719
 936  -683.4278
 937  -675.4537
 938  -622.2533
 939  -425.6036
 940  -343.4176
 941  -366.9905
 942  -387.1517
 943  -263.5696
 944  -362.6718
 945  -452.1166
 946  -545.1686
 947  -623.2072
 948  -524.603
 949  -530.4971
 950  -241.0119
 951  -210.8745
 952  -270.0294
 953  -348.83
 954  -464.3233
 955  -534.5095
 956  -719.5642
 957  -668.5422
 958  -527.8159
 959  -435.7265
 960  -505.8831
 961  -529.6451
 962  -559.2206
 963  -556.5093
 964  -627.0651
 965  -492.851
 966  -469.5549
 967  -535.3029
 968  -723.9704
 969  -858.9276
 970  -944.1114
 971  -988.7836
 972  -1013.819
 973  -763.4571
 974  -609.9238
 975  -467.9529
 976  -539.9686
 977  -559.9664
 978  -601.2089
 979  -555.3768
 980  -573.1254
 981  -662.2147
 982  -711.801
 983  -733.2415
 984  -763.6111
 985  -826.1935
 986  -968.7227
 987  -826.9482
 988  -657.0378
 989  -541.0383
 990  -550.5013
 991  -550.782
 992  -549.8285
 993  -687.282
 994  -679.1656
 995  -705.9742
 996  -700.0144
 997  -802.2343
 998  -705.7371
 999  -582.5402
1000  -594.9161
1001  -550.0671
1002  -377.4318
1003  -391.173
1004  -606.3609
1005  -759.7043
1006  -757.7498
1007  -743.9286
1008  -612.4426
1009  -590.9049
1010  -708.774
1011  -772.1746
1012  -679.3476
1013  -470.0183
1014  -526.2208
1015  -629.6531
1016  -798.7245
1017  -738.1415
1018  -634.2324
1019  -640.9821
1020  -612.1489
1021  -563.645
1022  -465.6187
1023  -587.7372
