# Input file       =  1212476026.101743_cleaned.dat
# Candidate        =  PSR_0332+5434
# Telescope        =  AR
# Epoch_topo       =  58277.287559047953
# Epoch_bary       =  N/A
# T_sample         =  0.002
# Data Folded      =  7340032
# Data Avg         =  0.131585205091272
# Data StdDev      =  2.94045886429732 
# Profile Bins     =  512
# Profile Avg      =  1886.290688185   
# Profile StdDev   =  352.070068163295 
# Reduced chi-sqr  =  1.126
# Prob(Noise)      <  0.0257   (~1.9 sigma)
# P_topo (ms)      =  714.509889140332  +/- 0.000226
# P'_topo (s/s)    =  -0                +/- 1.19e-10
# P''_topo (s/s^2) =  0                 +/- 5.26e-14
# P_bary (ms)      =  N/A
# P'_bary (s/s)    =  N/A
# P''_bary (s/s^2) =  N/A
# P_orb (s)        =  N/A
# asin(i)/c (s)    =  N/A
# eccentricity     =  N/A
# w (rad)          =  N/A
# T_peri           =  N/A
######################################################
   0  2165.809
   1  2043.245
   2  1936.273
   3  1780.863
   4  1736.519
   5  1552.363
   6  1781.28
   7  1769.774
   8  1823.097
   9  1780.053
  10  2114.112
  11  1994.424
  12  1800.931
  13  1951.864
  14  2038.486
  15  2005.323
  16  1881.453
  17  1758.487
  18  1494.988
  19  1436.755
  20  1287.681
  21  1422.333
  22  1841.912
  23  1939.769
  24  2080.589
  25  2069.577
  26  1691.191
  27  1729.6
  28  1835.176
  29  1886.753
  30  1842.137
  31  1880.092
  32  2233.794
  33  2062.349
  34  1754.238
  35  1768.641
  36  1860.558
  37  1651.297
  38  1763.427
  39  2023.96
  40  1858.637
  41  1667.705
  42  1672.027
  43  1739.529
  44  1544.65
  45  1475.737
  46  1457.311
  47  1263.672
  48  1540.61
  49  1706.801
  50  1673.594
  51  1826.628
  52  1830.644
  53  1466.066
  54  1247.54
  55  1377.959
  56  1550.155
  57  1782.157
  58  1610.147
  59  1758.03
  60  1930.235
  61  1451.169
  62  1598.351
  63  1661.425
  64  1816.801
  65  1918.767
  66  2049.448
  67  2077.146
  68  1883.547
  69  1816.917
  70  1709.836
  71  1827.66
  72  1714.825
  73  1780.97
  74  2035.563
  75  2219.731
  76  1913.112
  77  1753.654
  78  1687.203
  79  1820.185
  80  1610.238
  81  1603.4
  82  1950.532
  83  2047.019
  84  1773.569
  85  1693.496
  86  2028.893
  87  1685.81
  88  1379.868
  89  1395.032
  90  1719.759
  91  1853.691
  92  1735.07
  93  1498.656
  94  1694.443
  95  1628.792
  96  1596.798
  97  1868.253
  98  1982.228
  99  2291.115
 100  2205.393
 101  1992.276
 102  1818.431
 103  1693.35
 104  1530.19
 105  1484.106
 106  2170.059
 107  2052.541
 108  1867.939
 109  1782.453
 110  1822.705
 111  1903.909
 112  1576.449
 113  1465.321
 114  1801.031
 115  2173.082
 116  2182.667
 117  1791.993
 118  1854.404
 119  2267.696
 120  2006.476
 121  1883.478
 122  1879.917
 123  1661.321
 124  2028.944
 125  1991.868
 126  1579.669
 127  1643.33
 128  1540.873
 129  1748.151
 130  1840.959
 131  1996.512
 132  2399.954
 133  2018.842
 134  1774.353
 135  1847.111
 136  2153.412
 137  1950.307
 138  1927.026
 139  1889.531
 140  2010.805
 141  1919.089
 142  2307.38
 143  2216.942
 144  1766.044
 145  1679.54
 146  1613.928
 147  1649.896
 148  1950.287
 149  1807.967
 150  2018.42
 151  2096.585
 152  2284.339
 153  2031.929
 154  2031.308
 155  2159.752
 156  1926.235
 157  1926.022
 158  2064.705
 159  1940.556
 160  1932.501
 161  1918.096
 162  1870.058
 163  1713.904
 164  1728.275
 165  1723.707
 166  1953.406
 167  1770.431
 168  1830.454
 169  2016.672
 170  1784.671
 171  1984.901
 172  2156.606
 173  2035.94
 174  1926.364
 175  1913.708
 176  2081.967
 177  1709.325
 178  1605.133
 179  1861.792
 180  1822.56
 181  1967.554
 182  1675.097
 183  1760.04
 184  2196.234
 185  2147.601
 186  1724.288
 187  1726.909
 188  2234.315
 189  1823.687
 190  1540.042
 191  1923.022
 192  2137.35
 193  2012.467
 194  1700.359
 195  1823.102
 196  1897.177
 197  1912.405
 198  1770.961
 199  1807.919
 200  1774.049
 201  1745.945
 202  1845.159
 203  1375.665
 204  1616.449
 205  1924.575
 206  1903.922
 207  1794.41
 208  1647.545
 209  1749.991
 210  1689.448
 211  1824.12
 212  1653.694
 213  1583.188
 214  1813.413
 215  1538.692
 216  1597.354
 217  1381.064
 218  1589.756
 219  1764.012
 220  1412.939
 221  1223.205
 222  1742.773
 223  1424.046
 224  1648.99
 225  1312.394
 226  1490.209
 227  1723.697
 228  1823.578
 229  1875.858
 230  1554.684
 231  1663.276
 232  1682.967
 233  1849.379
 234  1610.779
 235  1711.436
 236  1730.772
 237  1434.858
 238  1694.235
 239  1710.721
 240  1530.684
 241  1608.245
 242  1593.389
 243  1647.679
 244  1705.53
 245  1705.269
 246  1319.842
 247  1471.953
 248  1581.058
 249  1725.581
 250  1787.099
 251  1678.167
 252  1718.521
 253  1862.099
 254  1799.759
 255  1695.928
 256  1528.915
 257  1878.666
 258  1565.721
 259  1512.952
 260  1898.748
 261  1833.746
 262  1698.125
 263  1566.955
 264  1781.977
 265  1810.757
 266  1965.537
 267  1932.832
 268  1689.022
 269  1544.886
 270  1758.243
 271  1909.881
 272  1886.471
 273  2008.811
 274  2030.464
 275  2113.256
 276  1901.004
 277  1518.499
 278  1702.287
 279  1831.143
 280  1984.224
 281  2087.103
 282  1699.163
 283  1773.695
 284  1941.511
 285  1903.914
 286  2147.894
 287  1811.173
 288  1712.254
 289  1952.62
 290  1768.313
 291  1740.075
 292  2045.852
 293  2163.188
 294  2282.02
 295  2315.562
 296  2566.265
 297  2998.776
 298  3595.857
 299  4039.307
 300  3443.458
 301  2994.275
 302  2596.129
 303  1942.028
 304  1839.071
 305  1992.348
 306  1745.921
 307  1741.586
 308  2036.626
 309  1909.621
 310  1859.311
 311  1831.731
 312  1917.955
 313  1621.817
 314  1904.058
 315  2073.751
 316  1890.834
 317  1937.273
 318  2116.415
 319  2320.815
 320  1840.944
 321  1654.693
 322  1630.166
 323  1602.945
 324  1727.51
 325  1902.972
 326  2088.958
 327  1869.155
 328  2030.595
 329  2285.367
 330  1962.265
 331  2004.372
 332  1873.753
 333  1683.708
 334  2028.697
 335  2026.872
 336  2003.238
 337  1649.465
 338  1785.442
 339  2111.597
 340  2165.01
 341  1735.629
 342  1836.663
 343  1713.717
 344  2014.6
 345  1935.999
 346  1729.674
 347  1805.809
 348  2011.759
 349  2030.042
 350  2054.79
 351  1944.14
 352  2062.325
 353  2147.269
 354  1633.045
 355  1350.662
 356  1624.46
 357  2078.101
 358  2228.563
 359  2296.982
 360  2227.978
 361  2292.276
 362  1999.079
 363  1931.767
 364  1776.715
 365  1939.573
 366  2054.474
 367  1995.223
 368  1870.654
 369  1734.31
 370  1827.611
 371  1959.348
 372  1681.081
 373  1853.089
 374  1915.485
 375  2105.794
 376  1947.218
 377  1892.309
 378  2062.156
 379  1702.404
 380  1762.002
 381  2116.591
 382  1894.008
 383  1948.688
 384  1823.858
 385  1791.505
 386  1991.984
 387  2156.721
 388  1943.761
 389  1920.427
 390  1794.772
 391  1921.927
 392  1828.641
 393  1841.521
 394  1989.023
 395  1868.484
 396  1730.253
 397  1706.187
 398  2066.127
 399  2016.557
 400  2080.061
 401  2128.642
 402  1821.23
 403  1804.163
 404  2098.806
 405  2114.828
 406  2153.516
 407  1917.839
 408  2183.337
 409  1877.315
 410  1577.635
 411  1877.516
 412  2030.11
 413  2117.61
 414  1798.111
 415  1979.69
 416  1967.694
 417  1789.414
 418  1942.253
 419  1844.887
 420  1758.563
 421  1689.462
 422  1913.379
 423  2116.897
 424  1941.616
 425  1953.773
 426  2004.989
 427  2090.344
 428  1982.365
 429  2010.452
 430  1790.816
 431  2039.542
 432  1946.996
 433  1902.187
 434  1839.034
 435  2022.401
 436  1854.769
 437  1821.757
 438  1823.801
 439  1963.729
 440  2007.696
 441  1895.652
 442  2209.631
 443  2010.289
 444  2105.637
 445  2286.467
 446  2298.832
 447  2275.764
 448  2088.887
 449  2148.803
 450  1798.101
 451  1723.281
 452  1870.938
 453  1764.658
 454  1673.687
 455  1490.013
 456  1599.318
 457  1801.431
 458  1775.816
 459  1906.251
 460  2136.681
 461  1859.846
 462  1688.396
 463  1930.583
 464  2050.788
 465  2071.656
 466  1915.105
 467  1869.339
 468  1785.538
 469  2174.176
 470  2178.202
 471  2048.678
 472  1940.352
 473  2087.078
 474  2153.458
 475  1960.906
 476  1607.012
 477  1945.919
 478  2259.449
 479  1941.941
 480  2065.033
 481  2237.031
 482  2093.077
 483  2109.167
 484  2142.109
 485  2075.299
 486  2130.589
 487  2108.581
 488  2168.625
 489  2264.721
 490  2150.217
 491  2050.875
 492  2300.094
 493  2298.134
 494  2247.867
 495  2387.068
 496  2147.356
 497  1884.316
 498  1900.252
 499  2101.829
 500  2198.154
 501  2134.968
 502  2204.755
 503  2266.185
 504  2145.779
 505  2354.364
 506  2279.973
 507  1607.933
 508  1862.878
 509  2186.063
 510  2026.776
 511  2077.987
