# Input file       =  1212633698.108952_cleaned.dat
# Candidate        =  PSR_0332+5434
# Telescope        =  AR
# Epoch_topo       =  58279.112466538798
# Epoch_bary       =  N/A
# T_sample         =  0.002
# Data Folded      =  7208960
# Data Avg         =  0.280264260046269
# Data StdDev      =  5.71458911516047 
# Profile Bins     =  1024
# Profile Avg      =  1973.07470077476 
# Profile StdDev   =  479.480930210971 
# Reduced chi-sqr  =  0.488
# Prob(Noise)      <  1   (~0.0 sigma)
# P_topo (ms)      =  714.508130573414  +/- 4.97e-05
# P'_topo (s/s)    =  -0                +/- 2.67e-11
# P''_topo (s/s^2) =  0                 +/- 1.2e-14
# P_bary (ms)      =  N/A
# P'_bary (s/s)    =  N/A
# P''_bary (s/s^2) =  N/A
# P_orb (s)        =  N/A
# asin(i)/c (s)    =  N/A
# eccentricity     =  N/A
# w (rad)          =  N/A
# T_peri           =  N/A
######################################################
   0  2035.827
   1  2128.618
   2  2160.777
   3  2134.986
   4  2130.138
   5  2318.398
   6  2213.639
   7  2020.546
   8  1876.511
   9  1846.841
  10  1914.788
  11  1834.716
  12  1778.025
  13  1723.447
  14  1812.807
  15  1989.113
  16  1978.561
  17  1874.278
  18  1893.469
  19  2079.699
  20  2186.938
  21  2095.716
  22  1877.573
  23  1867.071
  24  1902.37
  25  2071.406
  26  1989.24
  27  1975.984
  28  1928.222
  29  2071.185
  30  2104.687
  31  1962.041
  32  1898.759
  33  1868.921
  34  2077.405
  35  2163.771
  36  2174.177
  37  2220.274
  38  2144.629
  39  2044.997
  40  1728.881
  41  1854.152
  42  1895.128
  43  1974.555
  44  1762.355
  45  1906.204
  46  1956.424
  47  2078.393
  48  1999.062
  49  1808.043
  50  1828.662
  51  1844.36
  52  1959.149
  53  1923.399
  54  1942.334
  55  2067.086
  56  2045.03
  57  2051.896
  58  1919.552
  59  2045.489
  60  1871.256
  61  2096.864
  62  2110.649
  63  2035.524
  64  1978.073
  65  1977.725
  66  1979.846
  67  1969.431
  68  2049.907
  69  2100.809
  70  2030.123
  71  2074.223
  72  2097.219
  73  1898.077
  74  1846.176
  75  1974.342
  76  1878.146
  77  1812.36
  78  1743.534
  79  1937.697
  80  1963.88
  81  1774.202
  82  1713.437
  83  1834.455
  84  2031.767
  85  2081.802
  86  1971.403
  87  1791.004
  88  1858.088
  89  1911.837
  90  1954.556
  91  1946.777
  92  2034.245
  93  2252.163
  94  2300.385
  95  2145.752
  96  1905.383
  97  1962.925
  98  2043.867
  99  1962.389
 100  1843.652
 101  1859.524
 102  2096.665
 103  1999.407
 104  2032.668
 105  1940.703
 106  1953.466
 107  2070.674
 108  2018.169
 109  2034.998
 110  1905.492
 111  2002.458
 112  2021.212
 113  1918.583
 114  1769.135
 115  1852.615
 116  2047.901
 117  2064.689
 118  1964.23
 119  1831.297
 120  1856.111
 121  1885.397
 122  1958.71
 123  1971.131
 124  1870.413
 125  1864.964
 126  1982.049
 127  2120.101
 128  1946.65
 129  2224.69
 130  2196.475
 131  2354.078
 132  2204.057
 133  2113.891
 134  2030.765
 135  1997.018
 136  1949.009
 137  1888.3
 138  1848.14
 139  1931.228
 140  1957.324
 141  1905.549
 142  1823.796
 143  1904.391
 144  2035.834
 145  2075.399
 146  1984.871
 147  1928.578
 148  1908.221
 149  1847.349
 150  1936.463
 151  2041.801
 152  2196.492
 153  2409.459
 154  2268.968
 155  1949.477
 156  1753.636
 157  1922.382
 158  2148.217
 159  2051.566
 160  1779.851
 161  1753.965
 162  1872.765
 163  1881.645
 164  2020.583
 165  2075.564
 166  2107.939
 167  2065.412
 168  2185.756
 169  2299.203
 170  2232.341
 171  2119.238
 172  2204.675
 173  2088.295
 174  2028.041
 175  1944.881
 176  2078.467
 177  2054.544
 178  1886.24
 179  1780.283
 180  1892.114
 181  1898.153
 182  1921.091
 183  1683.145
 184  1605.2
 185  1735.462
 186  1958.379
 187  2082.522
 188  1992.324
 189  1911.842
 190  1973.146
 191  2097.811
 192  2207.441
 193  2101.734
 194  2214.142
 195  2280.729
 196  2164.982
 197  2033.943
 198  1919.645
 199  2102.044
 200  2112.233
 201  2208.166
 202  2202.057
 203  2127.186
 204  2101.306
 205  1955.677
 206  1856.176
 207  1818.907
 208  1886.758
 209  1937.006
 210  1863.211
 211  1658.218
 212  1753.721
 213  1879.76
 214  1900.478
 215  1833.527
 216  1754.601
 217  1935.281
 218  2015.672
 219  2074.549
 220  2008.818
 221  2002.251
 222  2044.293
 223  2044.647
 224  2161.594
 225  2000.795
 226  2054.637
 227  1998.51
 228  2087.293
 229  1845.068
 230  1742.255
 231  1746.215
 232  1919.826
 233  1931.613
 234  2140.265
 235  2308.881
 236  2206.394
 237  1908.649
 238  1758.854
 239  1796.308
 240  1861.127
 241  2005.463
 242  2001.772
 243  1855.05
 244  1875.621
 245  1992.14
 246  1890.167
 247  1613.77
 248  1515.169
 249  1587.562
 250  1816.9
 251  1792.455
 252  1776.407
 253  1729.383
 254  1761.861
 255  1838.878
 256  1941.969
 257  1945.368
 258  2064.099
 259  2249.291
 260  2652.413
 261  2605.35
 262  2397.06
 263  1988.433
 264  2115.128
 265  2099.636
 266  1978.001
 267  1938.026
 268  2022.518
 269  2050.252
 270  1894.679
 271  1777.418
 272  1795.928
 273  1698.747
 274  1706.647
 275  1744.804
 276  1855.984
 277  2032.811
 278  2097.306
 279  1987.081
 280  1922.285
 281  1887.524
 282  2129.098
 283  2115.428
 284  1970.485
 285  1853.272
 286  1848.447
 287  1865.437
 288  1754.423
 289  1693.7
 290  1554.253
 291  1745.131
 292  2047.032
 293  2151.976
 294  2270.233
 295  2308.415
 296  2505.053
 297  2241.553
 298  2169.007
 299  2068.958
 300  2169.59
 301  2137.697
 302  1988.632
 303  2053.692
 304  1871.274
 305  2073.411
 306  2012.917
 307  2082.011
 308  1806.856
 309  1810.365
 310  1849.44
 311  1817.574
 312  1777.421
 313  1777.885
 314  1900.16
 315  1940.134
 316  1877.982
 317  1893.358
 318  2040.184
 319  2225.866
 320  2031.661
 321  1930.616
 322  1740.299
 323  1947.15
 324  2028.776
 325  2092.734
 326  1920.417
 327  1805.281
 328  1996.963
 329  2180.822
 330  2058.109
 331  1891.668
 332  1999.971
 333  2153.223
 334  2191.785
 335  2157.432
 336  2178.558
 337  2185.485
 338  2006.721
 339  1957.485
 340  1781.342
 341  1797.638
 342  1914.576
 343  1968.866
 344  1818.061
 345  1681.161
 346  1772.989
 347  1981.539
 348  2067.246
 349  1967.256
 350  2021.755
 351  1896.463
 352  1854.291
 353  1749.704
 354  1714.12
 355  1715.947
 356  1776.897
 357  1868.807
 358  2038.628
 359  2136.162
 360  2193.694
 361  2349.339
 362  2221.652
 363  2011.553
 364  2025.906
 365  2261.611
 366  2466.991
 367  2303.111
 368  2302.258
 369  2155.79
 370  1972.399
 371  1780.397
 372  1860.666
 373  1871.333
 374  1826.85
 375  1718.921
 376  1572.239
 377  1554.834
 378  1538.232
 379  1790.391
 380  1824.142
 381  1615.736
 382  1478.958
 383  1612.107
 384  1938.71
 385  2024.7
 386  2121.027
 387  1966.213
 388  2048.707
 389  2031.039
 390  2126.315
 391  2071.11
 392  1894.683
 393  1923.283
 394  1864.034
 395  1875.466
 396  1750.573
 397  1823.985
 398  1814.943
 399  1752.428
 400  1729.475
 401  1819.013
 402  2045.181
 403  1843.953
 404  1822.82
 405  1853.995
 406  2001.519
 407  2065.522
 408  2071.808
 409  2093.665
 410  2075.594
 411  2012.619
 412  2007.537
 413  1859.32
 414  1725.878
 415  1851.799
 416  1859.414
 417  1822.889
 418  1643.175
 419  1575.168
 420  1756.149
 421  1977.776
 422  2027.562
 423  1917.225
 424  1959.907
 425  2057.961
 426  2151.265
 427  2103.644
 428  2001.006
 429  2139.208
 430  2003.814
 431  2148.613
 432  2132.552
 433  2043.855
 434  1998.078
 435  1770.833
 436  1730.148
 437  1457.125
 438  1619.271
 439  1652.499
 440  1710.404
 441  1513.334
 442  1602.838
 443  1700.69
 444  2035.001
 445  2102.499
 446  2032.493
 447  1900.431
 448  1883.438
 449  2010.725
 450  2048.679
 451  1978.461
 452  2057.055
 453  2143.306
 454  2118.795
 455  1838.279
 456  1768.166
 457  1819.628
 458  2113.749
 459  2126.55
 460  2126.836
 461  2072.749
 462  2205.523
 463  2167.277
 464  2209.084
 465  2212.292
 466  2106.811
 467  2082.949
 468  2054.73
 469  2019.059
 470  1878.026
 471  1868.7
 472  1989.948
 473  1885.677
 474  1902.988
 475  1936.124
 476  1990.745
 477  2007.274
 478  1922.788
 479  2074.801
 480  2176.395
 481  2290.184
 482  2210.837
 483  2068.461
 484  1884.259
 485  2044.589
 486  2050.313
 487  1837.945
 488  1642.164
 489  1707.751
 490  1904.249
 491  1957.245
 492  1991.394
 493  1959.573
 494  2049.458
 495  2098.158
 496  2179.998
 497  2073.934
 498  1994.968
 499  1991.031
 500  2023.448
 501  1935.523
 502  1933.206
 503  1873.671
 504  1841.473
 505  1757.94
 506  1769.654
 507  1908.464
 508  2011.617
 509  2065.326
 510  2035.741
 511  1812.847
 512  1983.337
 513  2053.87
 514  2089.386
 515  1993.809
 516  1952.247
 517  2151.258
 518  2102.931
 519  1967.627
 520  1729.02
 521  1701.538
 522  1716.266
 523  1836.077
 524  1819.934
 525  1866.302
 526  1977.203
 527  2048.236
 528  2137.194
 529  2010.685
 530  1936.973
 531  2041.08
 532  2167.227
 533  2379.364
 534  2101.327
 535  2080.119
 536  1903.018
 537  1903.848
 538  1816.886
 539  1874.285
 540  2012.404
 541  1908.02
 542  1896.148
 543  1750.86
 544  1834.213
 545  2044.743
 546  2024.794
 547  1890.865
 548  1700.142
 549  1777.635
 550  2028.866
 551  2023.193
 552  1945.313
 553  1897.583
 554  1926.455
 555  2090.148
 556  1974.029
 557  1950.934
 558  2030.352
 559  2016.431
 560  2014.454
 561  1879.253
 562  1993.304
 563  1954.131
 564  1951.694
 565  1904.878
 566  1820.973
 567  1896.554
 568  1976.733
 569  1915.622
 570  1624.499
 571  1496.748
 572  1675.098
 573  1974.531
 574  2037.245
 575  2093.834
 576  1984.809
 577  2025.667
 578  1916.921
 579  1779.906
 580  1772.281
 581  1818.705
 582  1996.183
 583  2109.289
 584  1973.967
 585  1952.077
 586  1942.824
 587  2246.058
 588  2362.869
 589  2292.732
 590  2124.795
 591  2329.457
 592  2578.011
 593  2622.047
 594  2624.641
 595  2768.488
 596  3003.471
 597  2951.755
 598  3006.957
 599  2906.574
 600  2772.589
 601  2529.566
 602  2300.787
 603  2073.038
 604  1777.292
 605  1789.46
 606  1778.294
 607  1762.424
 608  1588.883
 609  1771.863
 610  2025.426
 611  1944.348
 612  1839.437
 613  1786.918
 614  1954.808
 615  1997.139
 616  1951.051
 617  1830.84
 618  1863.147
 619  1911.857
 620  2084.359
 621  2066.142
 622  1993.825
 623  2229.067
 624  2425.203
 625  2460.415
 626  2232.904
 627  2151.009
 628  2336.525
 629  2314.505
 630  2189.829
 631  2090.287
 632  2064.856
 633  1940.606
 634  1788.396
 635  1728.435
 636  1753.765
 637  1836.94
 638  1838.505
 639  1934.636
 640  1898.831
 641  2053.839
 642  2160.42
 643  2230.605
 644  2189.647
 645  2223.821
 646  2217.026
 647  2105.135
 648  1961.633
 649  1871.996
 650  1803.593
 651  1765
 652  1867.336
 653  1893.354
 654  1777.243
 655  1732.436
 656  1933.723
 657  2213.199
 658  2276.456
 659  2197.564
 660  2076.066
 661  2114.331
 662  2080.053
 663  1978.488
 664  1998.24
 665  1900.372
 666  2069.696
 667  1931.038
 668  2006.313
 669  1793.305
 670  1757.756
 671  1698.552
 672  1719.139
 673  1833.496
 674  1836.805
 675  1888.023
 676  1804.687
 677  1787.04
 678  1745.158
 679  1921.055
 680  2141.788
 681  2153.894
 682  2210.846
 683  2235.594
 684  2286.144
 685  1977.855
 686  1859.603
 687  1629.191
 688  1972.091
 689  1944.622
 690  1758.875
 691  1672.604
 692  1786.603
 693  2043.24
 694  2070.051
 695  2096.546
 696  2173.672
 697  2170.322
 698  2242.451
 699  2245.995
 700  2063.323
 701  1920.173
 702  1890.757
 703  1834.846
 704  1815.434
 705  1671.38
 706  1922.385
 707  1917.402
 708  1835.213
 709  1748.753
 710  1852.886
 711  1982.072
 712  1903.495
 713  1794.805
 714  1745.598
 715  1788.125
 716  1873.759
 717  1989.725
 718  2052.05
 719  1818.032
 720  1831.344
 721  2005.907
 722  2187.08
 723  1985.885
 724  1974.517
 725  2042.016
 726  2076.912
 727  1941.992
 728  2000.483
 729  2090.426
 730  1836.631
 731  1724.936
 732  1639.899
 733  1702.263
 734  1713.39
 735  1741.09
 736  1842.312
 737  1664.656
 738  1678.682
 739  1776.586
 740  1897.163
 741  1819.629
 742  1905.876
 743  1987.672
 744  2081.888
 745  1888.556
 746  1789.937
 747  1940.216
 748  1984.34
 749  1950.952
 750  1714.903
 751  1844.24
 752  1921.227
 753  2083.411
 754  2061.643
 755  1885.663
 756  1918.792
 757  2066.727
 758  2209.746
 759  2052.218
 760  1843.274
 761  1977.024
 762  2044.378
 763  2065.246
 764  2070.708
 765  2170.367
 766  2116.342
 767  1960.262
 768  1699.237
 769  1738.672
 770  1715.733
 771  2020.609
 772  2170.359
 773  1926.483
 774  1820.635
 775  1909.616
 776  2201.711
 777  2110.174
 778  1705.781
 779  1675.367
 780  1734.417
 781  1830.628
 782  1732.21
 783  1706.194
 784  1618.929
 785  1726.343
 786  1865.258
 787  1994.362
 788  2148.704
 789  2325.101
 790  2441.907
 791  2248.353
 792  2110.84
 793  2140.767
 794  2310.859
 795  2297.563
 796  2139.499
 797  2017.329
 798  1884.266
 799  1920.433
 800  1704.598
 801  1752.217
 802  1646.825
 803  1705.334
 804  1769.918
 805  1804.171
 806  1830.982
 807  1948.337
 808  2094.469
 809  2117.436
 810  1946.682
 811  1931.211
 812  2222.63
 813  2360.515
 814  2242.862
 815  2050.069
 816  1852.53
 817  1897.127
 818  1908.24
 819  1989.767
 820  1827.493
 821  1853.966
 822  1999.811
 823  2109.427
 824  2027.838
 825  1948.255
 826  1981.188
 827  1943.366
 828  1934.152
 829  2023.162
 830  2086.59
 831  2119.669
 832  2075.667
 833  2064.272
 834  1945.527
 835  1976.74
 836  1957.708
 837  1954.151
 838  1794.164
 839  1885.442
 840  2064.209
 841  2058.696
 842  1954.226
 843  1804.806
 844  1901.966
 845  2053.559
 846  2074.434
 847  2011.018
 848  1900.94
 849  1906.148
 850  1970.779
 851  2129.728
 852  2128.49
 853  2202.142
 854  2066.984
 855  2286.75
 856  2119.604
 857  1959.225
 858  1867.898
 859  2062.834
 860  2075.119
 861  1940.393
 862  1997.259
 863  2060.601
 864  1966.284
 865  1918.997
 866  1960.438
 867  1978.785
 868  1874.405
 869  1884.758
 870  1763.127
 871  1657.361
 872  1677.809
 873  1800.973
 874  1877.279
 875  1880.933
 876  2000.296
 877  2181.779
 878  2011.198
 879  1726.473
 880  1730.021
 881  1879.998
 882  2108.289
 883  2012.379
 884  1891.088
 885  1820.484
 886  1851.563
 887  2056.66
 888  2179.636
 889  2071.93
 890  1792.218
 891  1936.693
 892  2117.475
 893  2151.712
 894  2138.89
 895  2195.069
 896  2404.436
 897  2171.82
 898  2072.309
 899  1984.004
 900  1961.392
 901  1925.452
 902  1936.972
 903  1948.401
 904  1897.92
 905  1869.041
 906  1923.821
 907  1840.475
 908  1626.28
 909  1749.523
 910  1820.826
 911  1777.593
 912  1696.414
 913  1744.595
 914  1911.787
 915  1947.405
 916  2000.934
 917  1892.453
 918  1991.828
 919  2163.297
 920  2256.08
 921  2186.94
 922  1905.755
 923  1954.956
 924  1984.297
 925  2181.867
 926  2145.795
 927  2097.973
 928  2175.602
 929  2089.454
 930  2041.355
 931  1939.648
 932  1928.944
 933  1843.816
 934  1772.346
 935  1725.702
 936  1849.965
 937  1936.104
 938  1987.901
 939  1981.389
 940  1870.708
 941  1862.152
 942  1908.627
 943  1918.073
 944  1843.335
 945  1790.273
 946  1852.253
 947  1806.74
 948  1780.38
 949  1664.221
 950  1768.609
 951  1803.469
 952  1900.257
 953  2026.853
 954  2031.698
 955  2195.675
 956  2212.324
 957  2229.728
 958  2085.73
 959  2119.171
 960  2048.799
 961  2186.66
 962  2156.147
 963  2093.36
 964  1925.112
 965  1837.893
 966  1885.253
 967  1794.165
 968  1759.291
 969  1733.775
 970  1749.28
 971  1769.949
 972  1778.588
 973  1902.834
 974  2000.513
 975  2018.303
 976  1969.86
 977  1917.127
 978  1961.089
 979  2037.557
 980  2000.335
 981  1715.614
 982  1679.321
 983  1890.421
 984  2138.765
 985  2154.177
 986  2174.278
 987  2051.081
 988  2119.458
 989  1987.011
 990  1979.639
 991  1996.502
 992  2082.782
 993  2189.441
 994  2022.494
 995  1974.302
 996  1968.572
 997  2133.086
 998  2136.744
 999  2064.667
1000  1927.076
1001  1883.873
1002  1969.292
1003  2037.529
1004  2126.832
1005  2058.129
1006  2189.54
1007  2281.701
1008  2117.952
1009  1996.818
1010  1962.378
1011  2044.679
1012  2004.415
1013  1939.68
1014  1716.817
1015  1760.301
1016  1722.375
1017  1852.985
1018  1923.153
1019  2041.615
1020  2178.151
1021  2270.38
1022  2336.022
1023  2178.092
