# Input file       =  1212404813.114432_cleaned.dat
# Candidate        =  PSR_0332+5434
# Telescope        =  AR
# Epoch_topo       =  58276.463334657776
# Epoch_bary       =  N/A
# T_sample         =  0.002
# Data Folded      =  7340032
# Data Avg         =  0.0298281549819096
# Data StdDev      =  2.35398068982599 
# Profile Bins     =  512
# Profile Avg      =  427.623288018027 
# Profile StdDev   =  281.84925556514  
# Reduced chi-sqr  =  1.816
# Prob(Noise)      <  1.33e-26   (~10.6 sigma)
# P_topo (ms)      =  714.511015994877  +/- 0.00021
# P'_topo (s/s)    =  -0                +/- 1.11e-10
# P''_topo (s/s^2) =  0                 +/- 4.89e-14
# P_bary (ms)      =  N/A
# P'_bary (s/s)    =  N/A
# P''_bary (s/s^2) =  N/A
# P_orb (s)        =  N/A
# asin(i)/c (s)    =  N/A
# eccentricity     =  N/A
# w (rad)          =  N/A
# T_peri           =  N/A
######################################################
   0  489.7534
   1  710.9775
   2  511.5928
   3  286.3829
   4  304.1884
   5  333.3001
   6  125.7033
   7  384.2069
   8  422.0443
   9  517.852
  10  448.349
  11  720.5367
  12  585.482
  13  279.385
  14  251.9723
  15  283.0256
  16  497.3589
  17  463.2826
  18  353.0111
  19  608.6787
  20  662.9597
  21  240.9031
  22  156.4256
  23  445.1279
  24  397.0131
  25  36.49625
  26  107.8483
  27  236.8033
  28  125.7867
  29  96.12143
  30  240.7013
  31  420.1952
  32  487.7428
  33  556.7772
  34  384.2278
  35  256.997
  36  784.2953
  37  451.6524
  38  270.5376
  39  278.525
  40  107.069
  41  289.0428
  42  371.6453
  43  612.3931
  44  534.8943
  45  171.9005
  46  -0.1721048
  47  396.7797
  48  304.0962
  49  335.7422
  50  386.7594
  51  258.8134
  52  373.7395
  53  352.9767
  54  371.5261
  55  387.4327
  56  412.4876
  57  413.0752
  58  517.4383
  59  831.652
  60  512.3696
  61  468.9439
  62  494.7031
  63  371.9737
  64  210.3613
  65  -30.95023
  66  216.9503
  67  802.9852
  68  566.4722
  69  163.0862
  70  7.441716
  71  271.024
  72  565.4595
  73  605.6946
  74  475.3061
  75  250.2954
  76  136.3474
  77  608.5477
  78  556.8777
  79  554.9782
  80  200.0244
  81  123.814
  82  94.55868
  83  138.9266
  84  538.0624
  85  631.5173
  86  307.3595
  87  388.8876
  88  384.0166
  89  281.7631
  90  177.3345
  91  370.3542
  92  547.3032
  93  281.4111
  94  372.6495
  95  421.8887
  96  496.1712
  97  455.4706
  98  531.6006
  99  200.9936
 100  534.9752
 101  458.7233
 102  583.3014
 103  493.7936
 104  170.8415
 105  176.6503
 106  437.5951
 107  625.0272
 108  364.0453
 109  316.5488
 110  425.7984
 111  543.5906
 112  505.8435
 113  492.255
 114  93.93295
 115  -18.49774
 116  114.9424
 117  174.4312
 118  642.4714
 119  530.541
 120  275.8766
 121  31.79835
 122  215.5945
 123  412.4827
 124  437.8417
 125  721.1186
 126  832.6313
 127  463.5895
 128  365.0219
 129  322.8486
 130  663.4874
 131  339.7863
 132  450.3621
 133  466.4176
 134  446.7221
 135  254.902
 136  494.3455
 137  779.6865
 138  918.5212
 139  752.1326
 140  512.9578
 141  621.7618
 142  461.7348
 143  537.9619
 144  531.3232
 145  666.1335
 146  610.181
 147  525.1703
 148  449.149
 149  442.2837
 150  350.3127
 151  421.2293
 152  398.354
 153  343.7585
 154  300.2254
 155  269.969
 156  291.6845
 157  429.5622
 158  500.5099
 159  532.5663
 160  661.8917
 161  601.2273
 162  819.3634
 163  333.4356
 164  250.8222
 165  4.916076
 166  92.1664
 167  -11.99387
 168  74.96575
 169  377.3635
 170  196.6495
 171  189.8062
 172  28.8273
 173  184.3052
 174  409.0276
 175  526.8771
 176  274.192
 177  145.1929
 178  306.4703
 179  374.2517
 180  500.2572
 181  629.5948
 182  297.4261
 183  449.1917
 184  529.7225
 185  436.8457
 186  327.5293
 187  434.4429
 188  628.7914
 189  635.9583
 190  775.6799
 191  332.4142
 192  420.1242
 193  389.0851
 194  331.805
 195  38.07114
 196  200.9632
 197  374.3451
 198  230.5063
 199  81.31537
 200  43.56177
 201  46.01552
 202  -112.5907
 203  76.66058
 204  211.6331
 205  100.6442
 206  226.1686
 207  175.0991
 208  230.6373
 209  250.6047
 210  -132.2606
 211  415.343
 212  439.8714
 213  -167.4793
 214  -72.87652
 215  104.602
 216  372.7393
 217  405.7683
 218  430.8365
 219  486.5955
 220  445.3953
 221  499.4585
 222  607.0405
 223  450.1526
 224  49.97345
 225  54.56715
 226  207.0334
 227  274.8481
 228  525.4879
 229  518.495
 230  245.6861
 231  326.2501
 232  223.3103
 233  297.2682
 234  376.9649
 235  344.6386
 236  135.3922
 237  256.9276
 238  237.534
 239  143.2361
 240  188.8238
 241  -88.58455
 242  97.55798
 243  327.8746
 244  5.178089
 245  74.76147
 246  446.9085
 247  522.0142
 248  775.2478
 249  512.2633
 250  249.675
 251  120.3298
 252  146.8565
 253  331.7042
 254  312.5593
 255  111.5901
 256  136.525
 257  271.4508
 258  401.7137
 259  272.8394
 260  436.0512
 261  391.5989
 262  410.0025
 263  93.11239
 264  233.2373
 265  342.4467
 266  204.0807
 267  681.5554
 268  380.8337
 269  432.2327
 270  527.3091
 271  156.8746
 272  133.076
 273  -16.48089
 274  117.9754
 275  865.6566
 276  434.2577
 277  633.7983
 278  774.4971
 279  436.5149
 280  307.3127
 281  205.6207
 282  277.7303
 283  558.989
 284  312.9864
 285  571.3338
 286  430.6478
 287  340.7348
 288  346.8685
 289  207.6423
 290  390.9725
 291  692.285
 292  823.8342
 293  875.1024
 294  1165.557
 295  1243.586
 296  1519.389
 297  2181.843
 298  2378.684
 299  2356.733
 300  1950.698
 301  1786.115
 302  1085.868
 303  705.0482
 304  917.2312
 305  648.336
 306  561.5014
 307  598.126
 308  570.9922
 309  578.2944
 310  839.8768
 311  1053.866
 312  670.6845
 313  533.1525
 314  683.1151
 315  688.3787
 316  517.9556
 317  415.3409
 318  591.0148
 319  651.4073
 320  499.756
 321  202.6427
 322  291.1092
 323  550.9557
 324  553.6389
 325  507.2149
 326  373.3056
 327  349.0446
 328  582.7958
 329  367.0978
 330  184.2886
 331  483.1157
 332  340.3714
 333  161.5266
 334  384.1922
 335  465.5094
 336  304.5336
 337  129.4126
 338  193.4385
 339  356.686
 340  498.3707
 341  510.8505
 342  402.0985
 343  654.4458
 344  568.0068
 345  395.3582
 346  335.9583
 347  589.3281
 348  523.7518
 349  376.6946
 350  385.2764
 351  393.2108
 352  389.1353
 353  456.9662
 354  316.9335
 355  697.6533
 356  669.7598
 357  485.7946
 358  431.0452
 359  632.3703
 360  690.4572
 361  557.7727
 362  633.3447
 363  492.3134
 364  59.40465
 365  395.0746
 366  445.1346
 367  241.8682
 368  632.7228
 369  661.005
 370  585.6107
 371  539.4866
 372  477.394
 373  369.9984
 374  321.9051
 375  565.915
 376  597.8415
 377  515.4466
 378  358.7055
 379  -30.15593
 380  200.4404
 381  566.6512
 382  415.2183
 383  490.9625
 384  110.7132
 385  -0.6306573
 386  294.7564
 387  549.6371
 388  821.7639
 389  639.7698
 390  368.7747
 391  521.5922
 392  416.3847
 393  379.7668
 394  417.4775
 395  399.0439
 396  722.5461
 397  547.1553
 398  229.5505
 399  244.9937
 400  214.0042
 401  497.824
 402  739.8847
 403  -2.900008
 404  -95.41816
 405  322.5774
 406  294.5204
 407  326.2354
 408  372.3534
 409  489.9246
 410  132.0693
 411  -13.73574
 412  230.177
 413  414.6597
 414  351.9935
 415  168.1064
 416  320.0572
 417  472.807
 418  790.9147
 419  601.7283
 420  482.2722
 421  918.2403
 422  729.0505
 423  551.9789
 424  395.4048
 425  492.7197
 426  663.3203
 427  536.0237
 428  404.4207
 429  513.4254
 430  647.4893
 431  575.379
 432  620.3217
 433  607.4724
 434  609.9007
 435  568.9592
 436  242.7997
 437  615.8711
 438  703.6467
 439  375.5703
 440  475.5431
 441  697.1512
 442  748.3983
 443  516.9678
 444  485.7278
 445  405.488
 446  542.5692
 447  337.2441
 448  291.0281
 449  848.1097
 450  844.0923
 451  460.3963
 452  180.0167
 453  277.4799
 454  490.7699
 455  502.8029
 456  452.158
 457  234.0165
 458  346.482
 459  530.8508
 460  671.4833
 461  560.5819
 462  629.3812
 463  578.9045
 464  672.174
 465  587.0328
 466  449.1387
 467  123.4651
 468  387.0311
 469  660.4865
 470  585.3513
 471  428.2733
 472  491.2166
 473  377.5876
 474  265.4427
 475  102.2022
 476  456.5523
 477  522.3336
 478  573.9433
 479  561.9842
 480  443.7094
 481  619.7161
 482  347.4133
 483  288.3313
 484  399.082
 485  510.8353
 486  686.7886
 487  428.4091
 488  223.4022
 489  629.0697
 490  531.7798
 491  326.7467
 492  451.3555
 493  464.8097
 494  180.8697
 495  151.4273
 496  254.5972
 497  621.4038
 498  763.9161
 499  686.8775
 500  209.5499
 501  81.21764
 502  263.5669
 503  394.6763
 504  774.9836
 505  531.8593
 506  488.5362
 507  358.4925
 508  456.8244
 509  318.1656
 510  334.4392
 511  383.7775
