# Input file       =  1212547564.111335_cleaned.dat
# Candidate        =  PSR_0332+5434
# Telescope        =  AR
# Epoch_topo       =  58278.115545270084
# Epoch_bary       =  N/A
# T_sample         =  0.002
# Data Folded      =  7143424
# Data Avg         =  0.264704969740438
# Data StdDev      =  5.6304909702055  
# Profile Bins     =  1024
# Profile Avg      =  1846.59144831504 
# Profile StdDev   =  470.272412196788 
# Reduced chi-sqr  =  0.722
# Prob(Noise)      <  1   (~0.0 sigma)
# P_topo (ms)      =  714.509084015023  +/- 3.83e-05
# P'_topo (s/s)    =  -0                +/- 2.08e-11
# P''_topo (s/s^2) =  0                 +/- 9.41e-15
# P_bary (ms)      =  N/A
# P'_bary (s/s)    =  N/A
# P''_bary (s/s^2) =  N/A
# P_orb (s)        =  N/A
# asin(i)/c (s)    =  N/A
# eccentricity     =  N/A
# w (rad)          =  N/A
# T_peri           =  N/A
######################################################
   0  1949.235
   1  1725.213
   2  1673.011
   3  1885.21
   4  1765.16
   5  1807.476
   6  1841.675
   7  1949.142
   8  1954.389
   9  1996.543
  10  2018.968
  11  1980.344
  12  2023.048
  13  2254.791
  14  2098.684
  15  1910.666
  16  1862.541
  17  1860.939
  18  1704.601
  19  1393.148
  20  1318.63
  21  1520.971
  22  1769.49
  23  1788.39
  24  1521.124
  25  1325.903
  26  1412.726
  27  1709.896
  28  2128.88
  29  2164.878
  30  2336.655
  31  2445.294
  32  2538.047
  33  2254.756
  34  1862.726
  35  1758.526
  36  1801.689
  37  1828.812
  38  1576.289
  39  1423.373
  40  1449.687
  41  1740.652
  42  1921.322
  43  1905.037
  44  1796.506
  45  1866.132
  46  1990.806
  47  1914.341
  48  1735.026
  49  1648.241
  50  1616.212
  51  1566.339
  52  1553.649
  53  1534.501
  54  1665.098
  55  1784.375
  56  1755.944
  57  1580.563
  58  1662.683
  59  1651.305
  60  1643.942
  61  1561.005
  62  1852.008
  63  2222.89
  64  2324.492
  65  2215.007
  66  2086.128
  67  2028.716
  68  1987.51
  69  1760.667
  70  1732.999
  71  1674.335
  72  1898.048
  73  2022.937
  74  1893.005
  75  1637.593
  76  1696.051
  77  1914.931
  78  2108.209
  79  1963.245
  80  2058.694
  81  1985.126
  82  2018.32
  83  1935.017
  84  1813.654
  85  1668.697
  86  1623.83
  87  1792.887
  88  1786.904
  89  1603.426
  90  1475.122
  91  1597.684
  92  1541.607
  93  1336.747
  94  1336.237
  95  1785.301
  96  2168.223
  97  2178.396
  98  2077.471
  99  1970.049
 100  2023.119
 101  2030.125
 102  2135.407
 103  2015.979
 104  1937.95
 105  1980.257
 106  2198.279
 107  2102.594
 108  1885.668
 109  1684.612
 110  1836.576
 111  1812.343
 112  1876.087
 113  2055.583
 114  2260.912
 115  2192.193
 116  2081.17
 117  1863.981
 118  1707.527
 119  1591.526
 120  1618.197
 121  1690.585
 122  1635.746
 123  1706.331
 124  1782.75
 125  1858.162
 126  1900.654
 127  1749.84
 128  1812.483
 129  1885.385
 130  2103.242
 131  2130.402
 132  2103.313
 133  1961.596
 134  1744.974
 135  1616.242
 136  1812.435
 137  1952.733
 138  1867.936
 139  1915.561
 140  2013.096
 141  1943.627
 142  1805.49
 143  1846.383
 144  1876.319
 145  1896.866
 146  2037.841
 147  2071.62
 148  1759.123
 149  1538.29
 150  1600.808
 151  1784.08
 152  1731.855
 153  1646.025
 154  1863.612
 155  2012.663
 156  2037.195
 157  1761.741
 158  1780.04
 159  1778.628
 160  1879.463
 161  1982.334
 162  2016.778
 163  1848.715
 164  1744.502
 165  1873.816
 166  1896.527
 167  1573.626
 168  1379.427
 169  1538.939
 170  1757.965
 171  1676.357
 172  1589.17
 173  1673.038
 174  1817.38
 175  1892.791
 176  1959.831
 177  1873.392
 178  1872.633
 179  1967.174
 180  2005.165
 181  1813.904
 182  1637.1
 183  1679.077
 184  1834.314
 185  1833.57
 186  1639.798
 187  1670.038
 188  1637.772
 189  1713.077
 190  1604.228
 191  1614.078
 192  1639.452
 193  1830.403
 194  1876.781
 195  1895.266
 196  1955.502
 197  2126.733
 198  2073.232
 199  1896.422
 200  1655.211
 201  1612.945
 202  1650.911
 203  1708.754
 204  1820.078
 205  1843.275
 206  1896.368
 207  1908.644
 208  1809.598
 209  1738.231
 210  1907.084
 211  2134.396
 212  2077.435
 213  1858.887
 214  1801.029
 215  1844.314
 216  1761.941
 217  1717.407
 218  1631.227
 219  1601.723
 220  1496.103
 221  1727.763
 222  1702.744
 223  1624.299
 224  1576.532
 225  1685.617
 226  1654.88
 227  1571.749
 228  1901.644
 229  2247.139
 230  2308.46
 231  2061.219
 232  1919.952
 233  2024.504
 234  1919.765
 235  1927.034
 236  1876.561
 237  1778.479
 238  1545.965
 239  1576.919
 240  1667.307
 241  1522.604
 242  1450.329
 243  1851.977
 244  2055.958
 245  2022.464
 246  1812.964
 247  1929.695
 248  1908.327
 249  1981.174
 250  1974.839
 251  1910.026
 252  1729.419
 253  1671.175
 254  1676.224
 255  1586.589
 256  1552.492
 257  1546.956
 258  1691.842
 259  1693.439
 260  1781.716
 261  2017.408
 262  2236.204
 263  2296.709
 264  2043.228
 265  2007.549
 266  2044.641
 267  2102.157
 268  1921.934
 269  1926.25
 270  1957.632
 271  2000.161
 272  1946.968
 273  1893.945
 274  1685.288
 275  1626.961
 276  1730.703
 277  1775.648
 278  1877.246
 279  1950.361
 280  2256.852
 281  2085.458
 282  1860.996
 283  1533.891
 284  1509.76
 285  1480.724
 286  1617.433
 287  1605.144
 288  1740.408
 289  1741.003
 290  1687.206
 291  1539.39
 292  1619.861
 293  1816.375
 294  1961.278
 295  2074.963
 296  2016.764
 297  1908.641
 298  1803.172
 299  1815.671
 300  1603.284
 301  1278.198
 302  1356.699
 303  1720.975
 304  1831.858
 305  1749.356
 306  1732.886
 307  1861.651
 308  1904.211
 309  1832.401
 310  1941.931
 311  1964.106
 312  2060.787
 313  2056.259
 314  1848.109
 315  1395.652
 316  1260.028
 317  1457.944
 318  1706.623
 319  1556.175
 320  1395.26
 321  1611.454
 322  1908.229
 323  1886.393
 324  1723.586
 325  1503.859
 326  1708.673
 327  1885.801
 328  2114.03
 329  1913.796
 330  1737.088
 331  1604.771
 332  1677.553
 333  1577.778
 334  1488.996
 335  1587.447
 336  1845.714
 337  1874.493
 338  1615.618
 339  1584.482
 340  1855.514
 341  1909.843
 342  1812.601
 343  1792.053
 344  2057.659
 345  2101.651
 346  1985.886
 347  1633.971
 348  1417.12
 349  1290.645
 350  1431.67
 351  1574.065
 352  1717.724
 353  1688.146
 354  1754.159
 355  1707.684
 356  1689.652
 357  1497.551
 358  1640.545
 359  1936.954
 360  2071.034
 361  2011.591
 362  1860.57
 363  1891.268
 364  1643.728
 365  1438.741
 366  1487.623
 367  1614.796
 368  1717.979
 369  1763.557
 370  1798.215
 371  1694.119
 372  1599.605
 373  1915.057
 374  1987.161
 375  1918.534
 376  1918.426
 377  2171.193
 378  2150.721
 379  1858.699
 380  1774.682
 381  1877.921
 382  1827.768
 383  1644.866
 384  1668.078
 385  1573.572
 386  1640.295
 387  1602.282
 388  1621.131
 389  1436.599
 390  1484.389
 391  1792.305
 392  1937.636
 393  1910.05
 394  1911.495
 395  2103.097
 396  2258.49
 397  2036.654
 398  1766.675
 399  1810.646
 400  1992.745
 401  2022.698
 402  1879.73
 403  1759.038
 404  1711.407
 405  1680.986
 406  1733.282
 407  1617.729
 408  1569.856
 409  1844.962
 410  2073.232
 411  2069.355
 412  1844.899
 413  1853.94
 414  1833.68
 415  1743.463
 416  1624.341
 417  1539.793
 418  1645.209
 419  1706.341
 420  1764.851
 421  1686.105
 422  1531.957
 423  1437.108
 424  1503.516
 425  1803.293
 426  2099.6
 427  2167.283
 428  2256.303
 429  2167.455
 430  2034.407
 431  1827.86
 432  1875.899
 433  1938.317
 434  1946.809
 435  1932.429
 436  2095.196
 437  2039.296
 438  1809.88
 439  1556.693
 440  1658.25
 441  1899.986
 442  2103.389
 443  2179.418
 444  2161.417
 445  2232.487
 446  2254.775
 447  2209.768
 448  1951.697
 449  1650.898
 450  1558.989
 451  1862.408
 452  1838.637
 453  1746.704
 454  1557.927
 455  1758.823
 456  1856.937
 457  1764.368
 458  1770.54
 459  1827.707
 460  2070.578
 461  2332.143
 462  2328.439
 463  2175.357
 464  1909.771
 465  1879.719
 466  1892.712
 467  1742.883
 468  1647.149
 469  1781.702
 470  1974.062
 471  1934.6
 472  1804.766
 473  1803.656
 474  1870.843
 475  1966.479
 476  2122.018
 477  2201.151
 478  2210.501
 479  2093.583
 480  1858.285
 481  1539.504
 482  1428.179
 483  1626.867
 484  1848.288
 485  1835.852
 486  1792.967
 487  1777.229
 488  1834.529
 489  1871.011
 490  1786.544
 491  1721.474
 492  1758.346
 493  1887.629
 494  1961.515
 495  1975.582
 496  2005.152
 497  1963.843
 498  1832.004
 499  1810.964
 500  1891.951
 501  1848.302
 502  1891.19
 503  1971.213
 504  1885.146
 505  1726.434
 506  1824.59
 507  2033.345
 508  1965.708
 509  1803.465
 510  1955.614
 511  2085.99
 512  1935.107
 513  1685.339
 514  1610.676
 515  1688.677
 516  1726.687
 517  1822.12
 518  1782.505
 519  1734.285
 520  1758.663
 521  1799.885
 522  1835.859
 523  1823.435
 524  1857.49
 525  2028.238
 526  2026.804
 527  1952.853
 528  1880.099
 529  2062.876
 530  2199.177
 531  2007.235
 532  1770.907
 533  1869.208
 534  1877.853
 535  1842.245
 536  1782.273
 537  1996.26
 538  2090.203
 539  2223.17
 540  2229.383
 541  2114.367
 542  1988.444
 543  2095.113
 544  2184.328
 545  1976.736
 546  1940.067
 547  1950.875
 548  1983.868
 549  1818.271
 550  1824.227
 551  1872.894
 552  1849.899
 553  1905.521
 554  1889.125
 555  1852.512
 556  1680.423
 557  1777.112
 558  2056.623
 559  2333.768
 560  2374.469
 561  2240.476
 562  2171.211
 563  2122.244
 564  2102.285
 565  1932.605
 566  1937.754
 567  1909.063
 568  1949.301
 569  1900.492
 570  1970.02
 571  1905.966
 572  1794.092
 573  1746.758
 574  1939.676
 575  2153.03
 576  2235.226
 577  2237.601
 578  2202.38
 579  2165.991
 580  2116.755
 581  1962.399
 582  1904.778
 583  1750.899
 584  1894.053
 585  1999.552
 586  1895.236
 587  1683.933
 588  1823.511
 589  2216.47
 590  2525.601
 591  2516.286
 592  2593.084
 593  2735.335
 594  2935.006
 595  2952.852
 596  2858.674
 597  2664.614
 598  2477.018
 599  2462.512
 600  2427.74
 601  2195.581
 602  2095.323
 603  2286.132
 604  2343.724
 605  2090.355
 606  1894.618
 607  2058.531
 608  2169.423
 609  2207.986
 610  2272.432
 611  2081.592
 612  1895.411
 613  1738.253
 614  1718.515
 615  1623.496
 616  1632.889
 617  1751.367
 618  1975.884
 619  1843.037
 620  1837.249
 621  1715.698
 622  1945.044
 623  1966.31
 624  2088.626
 625  2107.686
 626  2229.322
 627  2212.988
 628  2131.646
 629  2025.044
 630  2096.753
 631  2067.986
 632  1985.121
 633  1988.875
 634  2076.459
 635  2038.102
 636  1900.806
 637  1776.932
 638  1663.005
 639  1649.352
 640  1835.267
 641  1907.299
 642  1923.104
 643  1943.605
 644  1950.61
 645  1872.196
 646  1725.25
 647  1663.526
 648  1742.452
 649  1845.896
 650  1765.985
 651  1625.723
 652  1588.529
 653  1716.563
 654  1727.205
 655  1710.356
 656  1671.135
 657  1753.839
 658  1923.439
 659  2089.343
 660  2142.433
 661  2002.731
 662  1968.022
 663  2073.723
 664  1901.864
 665  1777.414
 666  1873.236
 667  2072.187
 668  1968.658
 669  1696.081
 670  1717.291
 671  1756.008
 672  1990.121
 673  2130.137
 674  2093.499
 675  2006.161
 676  1940.229
 677  2019.305
 678  1855.025
 679  1628.107
 680  1520.701
 681  1681.868
 682  1587.803
 683  1430.699
 684  1394.248
 685  1604.737
 686  1657.075
 687  1565.226
 688  1496.293
 689  1507.574
 690  1654.764
 691  1874.722
 692  1935.669
 693  1934.826
 694  1850.724
 695  1839.846
 696  1755.524
 697  1690.437
 698  1547.142
 699  1565.257
 700  1595.564
 701  1558.121
 702  1549.512
 703  1644.055
 704  1825.232
 705  2004.214
 706  2104.182
 707  2002.544
 708  1824.427
 709  1728.52
 710  1570.832
 711  1441.915
 712  1214.676
 713  1297.303
 714  1475.912
 715  1613.768
 716  1655.498
 717  1639.174
 718  1638.998
 719  1691.074
 720  1729.677
 721  1881.978
 722  1941.743
 723  2128.308
 724  2081.561
 725  2156.662
 726  2089.509
 727  1936.298
 728  1774.185
 729  1595.205
 730  1413.954
 731  1357.83
 732  1550.119
 733  1932.349
 734  1871.156
 735  1669.226
 736  1740.933
 737  2075.126
 738  2079.836
 739  1889.296
 740  1983.844
 741  2142.434
 742  2123.139
 743  1906.526
 744  1915.663
 745  1943.915
 746  2027.305
 747  2080.258
 748  1844.501
 749  1595.156
 750  1484.901
 751  1531.409
 752  1560.26
 753  1489.878
 754  1489.937
 755  1788.822
 756  1937.722
 757  2213.741
 758  2097.141
 759  2160.085
 760  2052.471
 761  2052.178
 762  1943.878
 763  1837.611
 764  1838.029
 765  1899.307
 766  2123.964
 767  2017.496
 768  1840.531
 769  1681.105
 770  1856.845
 771  1744.493
 772  1762.789
 773  1856.416
 774  2178.285
 775  2111.42
 776  1996.414
 777  1965.446
 778  1940.858
 779  1963.392
 780  1938.879
 781  2041.774
 782  1990.278
 783  2026.437
 784  1863.516
 785  1773.388
 786  1779.594
 787  1831.323
 788  1882.031
 789  1837.603
 790  1818.72
 791  1761.725
 792  1871.519
 793  2043.132
 794  2059.256
 795  1946.643
 796  1914.99
 797  1988
 798  1888.746
 799  1884.059
 800  1992.549
 801  2042.786
 802  1762.54
 803  1529.163
 804  1547.717
 805  1856.483
 806  1990.821
 807  2120.413
 808  1934.192
 809  1918.092
 810  1939.52
 811  2016.165
 812  1954.405
 813  1774.723
 814  1803.262
 815  1983.084
 816  2088.25
 817  1979.887
 818  1872.897
 819  1843.403
 820  1891.8
 821  1817.353
 822  1886.857
 823  2001.591
 824  2177.414
 825  2224.276
 826  2086.046
 827  1745.438
 828  1686.32
 829  1905.699
 830  2085.616
 831  1753.102
 832  1496.129
 833  1596.869
 834  1911.934
 835  1914.31
 836  1784.987
 837  1764.29
 838  1861.913
 839  1937.007
 840  2043.805
 841  1950.64
 842  1946.219
 843  2004.616
 844  2087.242
 845  1919.51
 846  1757.818
 847  1811.536
 848  2028.677
 849  1946.114
 850  1730.947
 851  1630.098
 852  1714.032
 853  1794.165
 854  1876.167
 855  1782.443
 856  1887.12
 857  2015.442
 858  2139.029
 859  2109.646
 860  1949.067
 861  1924.567
 862  1934.717
 863  1896.368
 864  1672.064
 865  1626.371
 866  1762.224
 867  1825.835
 868  1736.277
 869  1638.162
 870  1882.684
 871  1988.941
 872  2006.689
 873  1954.246
 874  1908.141
 875  1829.974
 876  1721.278
 877  1575.131
 878  1646.405
 879  1554.904
 880  1612.718
 881  1596.25
 882  1652.269
 883  1637.064
 884  1785.444
 885  1819.828
 886  1736.54
 887  1625.118
 888  1869.025
 889  2218.689
 890  2368.158
 891  2120.261
 892  2012.487
 893  2034.016
 894  1952.697
 895  1673.392
 896  1539.377
 897  1425.558
 898  1577.342
 899  1823.487
 900  1899.804
 901  1646.62
 902  1500.112
 903  1773.896
 904  2035.494
 905  1893.252
 906  1901.518
 907  2156.226
 908  2175.372
 909  1986.807
 910  1611.624
 911  1702.799
 912  1695.46
 913  1883.121
 914  1844.034
 915  1817.556
 916  1730.878
 917  1658.058
 918  1524.476
 919  1399.864
 920  1512.698
 921  1674.657
 922  1832.502
 923  1956.594
 924  1942.116
 925  1820.655
 926  1859.077
 927  1962.242
 928  1949.807
 929  1616.339
 930  1597.521
 931  1622.432
 932  1690.379
 933  1692.328
 934  1654.328
 935  1667.042
 936  1655.484
 937  1683.834
 938  1641.336
 939  1724.384
 940  2015.842
 941  2185.444
 942  1985.669
 943  1725.459
 944  1562.615
 945  1572.887
 946  1558.107
 947  1606.714
 948  1837.658
 949  1878.957
 950  1779.144
 951  1435.823
 952  1483.658
 953  1711.302
 954  1871.885
 955  1866.494
 956  1789.222
 957  1771.401
 958  1768.781
 959  1780.537
 960  1709.204
 961  1625.558
 962  1658.347
 963  2001.632
 964  2129.76
 965  1964.573
 966  1774.181
 967  1934.257
 968  1954.518
 969  1787.986
 970  1660.458
 971  1886.861
 972  2182.733
 973  2278.055
 974  2104.732
 975  1866.055
 976  1771.336
 977  1828.145
 978  1838.216
 979  1566.323
 980  1428.173
 981  1546.405
 982  1807.108
 983  1796.627
 984  1566.169
 985  1587.586
 986  1874.375
 987  2015.634
 988  1925.039
 989  1728.676
 990  1739.169
 991  1855.433
 992  1901.207
 993  1880.791
 994  1823.358
 995  1774.122
 996  1880.671
 997  1953.135
 998  1872.948
 999  1637.309
1000  1769.244
1001  1838.215
1002  1838.832
1003  1841.417
1004  2073.743
1005  2062.02
1006  1955.316
1007  1781.969
1008  1778.979
1009  1713.344
1010  1650.374
1011  1625.023
1012  1609.162
1013  1848.556
1014  1786.901
1015  1816.465
1016  1628.171
1017  1596.792
1018  1587.154
1019  1580.768
1020  1487.728
1021  1403.406
1022  1655.711
1023  1925.722
