# Input file       =  1212547564.111335_cleaned.dat
# Candidate        =  PSR_0332+5434
# Telescope        =  AR
# Epoch_topo       =  58278.115545270084
# Epoch_bary       =  N/A
# T_sample         =  0.002
# Data Folded      =  7143424
# Data Avg         =  0.0500286425279887
# Data StdDev      =  1.00002966623821 
# Profile Bins     =  512
# Profile Avg      =  698.008228910443 
# Profile StdDev   =  118.122088615932 
# Reduced chi-sqr  =  1.349
# Prob(Noise)      <  2.15e-07   (~5.1 sigma)
# P_topo (ms)      =  714.509084015023  +/- 0.000135
# P'_topo (s/s)    =  -0                +/- 7.33e-11
# P''_topo (s/s^2) =  0                 +/- 3.32e-14
# P_bary (ms)      =  N/A
# P'_bary (s/s)    =  N/A
# P''_bary (s/s^2) =  N/A
# P_orb (s)        =  N/A
# asin(i)/c (s)    =  N/A
# eccentricity     =  N/A
# w (rad)          =  N/A
# T_peri           =  N/A
######################################################
   0  726.5413
   1  721.8808
   2  760.0681
   3  672.6523
   4  641.9609
   5  714.0764
   6  545.5587
   7  625.1361
   8  804.8998
   9  937.2153
  10  859.4218
  11  685.5151
  12  740.1578
  13  570.3923
  14  594.6443
  15  725.7194
  16  698.3226
  17  659.3145
  18  539.4826
  19  567.3206
  20  626.8693
  21  647.7309
  22  602.2845
  23  595.2668
  24  620.7503
  25  749.667
  26  793.6451
  27  669.5748
  28  650.8256
  29  669.212
  30  721.1003
  31  620.923
  32  676.0936
  33  731.4416
  34  653.2379
  35  631.7339
  36  684.4842
  37  683.2614
  38  674.1625
  39  559.7604
  40  506.3462
  41  518.0225
  42  719.16
  43  715.5029
  44  812.0153
  45  739.9161
  46  760.5002
  47  835.3268
  48  704.9318
  49  594.972
  50  784.2217
  51  848.3629
  52  757.5511
  53  644.4072
  54  592.5833
  55  545.257
  56  635.6579
  57  726.3813
  58  567.4687
  59  731.8116
  60  802.0282
  61  600.3572
  62  648.6057
  63  655.4489
  64  742.7993
  65  696.1469
  66  677.4757
  67  722.3507
  68  576.8236
  69  641.4762
  70  613.5469
  71  694.2944
  72  715.3846
  73  687.6573
  74  705.6039
  75  714.6064
  76  631.0172
  77  604.8315
  78  550.1283
  79  609.5073
  80  491.3373
  81  627.7291
  82  686.9277
  83  666.9575
  84  621.3531
  85  608.4619
  86  756.9631
  87  651.7345
  88  612.5526
  89  662.1782
  90  698.4722
  91  700.997
  92  644.3034
  93  690.5082
  94  612.8583
  95  653.0609
  96  723.0947
  97  702.5746
  98  709.1879
  99  730.6912
 100  657.1317
 101  599.4206
 102  648.0239
 103  652.6301
 104  602.5053
 105  695.8582
 106  624.9818
 107  569.7852
 108  783.561
 109  792.0474
 110  811.812
 111  836.2
 112  735.5152
 113  570.808
 114  564.1648
 115  635.8008
 116  780.2516
 117  711.1045
 118  689.6133
 119  748.5504
 120  671.6597
 121  669.3187
 122  612.2696
 123  646.6846
 124  734.9109
 125  801.1276
 126  694.1921
 127  752.2523
 128  698.3221
 129  748.366
 130  789.1491
 131  639.455
 132  623.7344
 133  618.4838
 134  710.0582
 135  596.6776
 136  478.596
 137  561.0275
 138  618.9419
 139  557.6724
 140  651.8447
 141  677.1849
 142  710.9347
 143  648.2386
 144  407.9462
 145  475.1138
 146  594.0214
 147  671.8573
 148  664.7502
 149  610.129
 150  653.4672
 151  577.1456
 152  510.4366
 153  638.1987
 154  580.754
 155  690.4839
 156  634.3445
 157  659.9955
 158  723.4401
 159  528.4949
 160  558.4153
 161  640.0981
 162  699.8045
 163  634.4484
 164  642.1348
 165  614.0042
 166  734.9515
 167  653.3789
 168  521.4642
 169  566.5996
 170  632.4721
 171  639.2408
 172  573.6208
 173  603.4077
 174  762.7335
 175  680.2814
 176  493.8294
 177  559.1637
 178  716.5836
 179  669.795
 180  641.431
 181  753.8387
 182  789.4188
 183  698.5892
 184  643.7511
 185  643.4592
 186  596.1943
 187  617.9545
 188  626.8936
 189  691.1935
 190  732.3141
 191  704.4994
 192  753.4029
 193  683.8429
 194  762.6209
 195  642.3528
 196  627.6542
 197  568.1503
 198  599.5742
 199  748.7674
 200  695.9875
 201  593.968
 202  561.3497
 203  623.4391
 204  681.4509
 205  649.09
 206  633.382
 207  799.8811
 208  759.8164
 209  726.4697
 210  665.1319
 211  709.4822
 212  790.6254
 213  624.5612
 214  663.9493
 215  810.2632
 216  828.7584
 217  867.9023
 218  774.7583
 219  753.6453
 220  699.5472
 221  598.0291
 222  651.7878
 223  659.4828
 224  709.0441
 225  888.1302
 226  757.3406
 227  694.2844
 228  683.9397
 229  715.4483
 230  742.1061
 231  719.7457
 232  817.2146
 233  857.141
 234  710.24
 235  610.2916
 236  663.8693
 237  674.5786
 238  722.8605
 239  701.5988
 240  676.4233
 241  699.5404
 242  744.5488
 243  711.2871
 244  590.6964
 245  744.4994
 246  766.2531
 247  745.9631
 248  696.8834
 249  706.823
 250  713.8064
 251  611.2043
 252  712.1233
 253  706.3562
 254  616.9324
 255  758.2454
 256  678.9719
 257  740.689
 258  759.2965
 259  799.2799
 260  763.1906
 261  694.8373
 262  659.6678
 263  778.6414
 264  780.9728
 265  748.9731
 266  740.3513
 267  837.5501
 268  795.1288
 269  779.6174
 270  779.1417
 271  783.0986
 272  619.0834
 273  752.1778
 274  884.9755
 275  758.5403
 276  911.8356
 277  783.3597
 278  726.1367
 279  732.64
 280  633.3149
 281  708.4918
 282  798.7648
 283  873.391
 284  857.0863
 285  802.972
 286  770.328
 287  677.2651
 288  779.3297
 289  1042.661
 290  1090.061
 291  1259.936
 292  1306.591
 293  1145.897
 294  1045.799
 295  970.2891
 296  960.1478
 297  742.3716
 298  629.7584
 299  727.6809
 300  613.0193
 301  666.5273
 302  686.1057
 303  728.6753
 304  685.1966
 305  730.6495
 306  834.5991
 307  820.2372
 308  795.9277
 309  791.5255
 310  684.759
 311  746.7923
 312  701.886
 313  691.5266
 314  699.8992
 315  651.7359
 316  652.7587
 317  613.1257
 318  627.6356
 319  578.7111
 320  632.2985
 321  631.5007
 322  602.5789
 323  685.6848
 324  794.7216
 325  763.8909
 326  709.2383
 327  826.043
 328  632.7064
 329  600.5557
 330  724.1004
 331  723.8253
 332  700.0276
 333  642.8839
 334  641.8244
 335  509.4031
 336  530.0196
 337  650.0499
 338  615.6505
 339  722.886
 340  676.934
 341  668.1793
 342  675.9403
 343  674.8673
 344  576.6678
 345  618.7899
 346  731.1252
 347  708.6332
 348  540.1129
 349  484.7039
 350  434.1237
 351  553.4095
 352  671.772
 353  680.8049
 354  717.3669
 355  763.4949
 356  808.3731
 357  729.9337
 358  616.218
 359  513.9005
 360  665.7851
 361  631.1414
 362  655.7383
 363  826.5199
 364  820.8179
 365  836.0101
 366  786.2786
 367  884.3897
 368  770.9699
 369  586.8016
 370  624.4943
 371  740.5122
 372  738.1872
 373  712.7538
 374  735.1754
 375  737.2585
 376  701.7076
 377  792.6412
 378  704.6497
 379  682.6395
 380  652.5825
 381  751.1189
 382  786.5275
 383  785.0267
 384  788.7734
 385  776.3008
 386  630.4301
 387  697.15
 388  678.2657
 389  639.2712
 390  673.4327
 391  805.4479
 392  693.1612
 393  558.4372
 394  653.506
 395  554.948
 396  628.3063
 397  739.4575
 398  708.4119
 399  803.113
 400  808.34
 401  787.0937
 402  781.5481
 403  766.7088
 404  768.9799
 405  760.5116
 406  927.3503
 407  772.8781
 408  799.2692
 409  800.2642
 410  589.3414
 411  745.3297
 412  716.5069
 413  670.3942
 414  751.4799
 415  810.3893
 416  912.3853
 417  813.3655
 418  717.0112
 419  652.2673
 420  678.2654
 421  718.9603
 422  667.5252
 423  806.1278
 424  784.4623
 425  698.8273
 426  662.2823
 427  682.9743
 428  675.9714
 429  690.48
 430  703.3466
 431  648.7662
 432  640.2247
 433  670.1847
 434  651.6113
 435  698.3074
 436  817.7612
 437  647.4555
 438  651.0948
 439  813.7037
 440  789.5159
 441  749.5072
 442  717.2382
 443  694.0182
 444  736.3604
 445  673.7324
 446  796.369
 447  813.5333
 448  846.5776
 449  734.0936
 450  721.7007
 451  707.5062
 452  702.1713
 453  584.735
 454  638.5891
 455  586.6249
 456  671.6174
 457  705.1943
 458  802.3224
 459  573.3985
 460  587.8245
 461  636.739
 462  687.2034
 463  676.8051
 464  741.319
 465  731.556
 466  634.3596
 467  607.9661
 468  693.9045
 469  555.0413
 470  597.9008
 471  637.0764
 472  505.8547
 473  677.4922
 474  726.3562
 475  751.299
 476  839.1989
 477  807.9108
 478  768.0472
 479  688.8487
 480  874.1692
 481  827.8682
 482  760.7534
 483  773.3497
 484  729.7053
 485  678.5273
 486  636.4397
 487  749.08
 488  684.3564
 489  721.1143
 490  791.0153
 491  782.0598
 492  741.1866
 493  718.811
 494  690.2747
 495  742.4371
 496  823.5184
 497  720.3962
 498  765.9882
 499  608.0316
 500  605.3291
 501  624.9836
 502  548.0676
 503  519.593
 504  476.5131
 505  671.6183
 506  710.0377
 507  674.162
 508  741.5453
 509  779.022
 510  890.5459
 511  836.7973
