# Input file       =  1212116758.118906_cleaned.dat
# Candidate        =  PSR_0332+5434
# Telescope        =  AR
# Epoch_topo       =  58273.129364802153
# Epoch_bary       =  N/A
# T_sample         =  0.002
# Data Folded      =  7208960
# Data Avg         =  0.392234267670112
# Data StdDev      =  6.53081730596262 
# Profile Bins     =  512
# Profile Avg      =  5522.74338698818 
# Profile StdDev   =  774.941398783651 
# Reduced chi-sqr  =  0.736
# Prob(Noise)      <  1   (~0.0 sigma)
# P_topo (ms)      =  714.513890889797  +/- 3.54e-05
# P'_topo (s/s)    =  -0                +/- 1.9e-11
# P''_topo (s/s^2) =  0                 +/- 8.54e-15
# P_bary (ms)      =  N/A
# P'_bary (s/s)    =  N/A
# P''_bary (s/s^2) =  N/A
# P_orb (s)        =  N/A
# asin(i)/c (s)    =  N/A
# eccentricity     =  N/A
# w (rad)          =  N/A
# T_peri           =  N/A
######################################################
   0  5136.971
   1  5061.462
   2  4978.621
   3  5547.004
   4  5962.894
   5  6032.433
   6  5982.992
   7  5838.408
   8  5569.253
   9  5709.327
  10  5228.382
  11  5162.294
  12  5436.749
  13  6316.544
  14  6106.562
  15  6242.72
  16  5872.486
  17  5826.886
  18  5286.298
  19  5534.461
  20  6123.17
  21  5846.13
  22  5809.706
  23  6308.561
  24  6488.112
  25  6151.203
  26  5201.998
  27  5160.933
  28  5001.096
  29  5532.348
  30  5935.521
  31  6405.62
  32  5997.858
  33  5918.59
  34  5650.798
  35  5162.676
  36  5816.019
  37  5610.247
  38  6017.799
  39  6289.268
  40  5941.522
  41  5844.114
  42  5309.913
  43  5158.008
  44  5324.392
  45  6213.373
  46  6280.441
  47  5941.084
  48  5497.924
  49  5589.519
  50  5620.434
  51  5382.416
  52  5307.27
  53  5573.725
  54  6166.021
  55  6204.949
  56  6163.328
  57  5904.01
  58  5497.333
  59  4972.552
  60  5200.652
  61  5708.408
  62  5338.941
  63  5692.694
  64  5789.353
  65  5907.417
  66  5642.937
  67  4485.663
  68  4558.717
  69  5026.884
  70  5629.988
  71  5961.718
  72  6333.042
  73  6156.455
  74  5220.655
  75  4882.312
  76  4590.434
  77  4980.377
  78  5604.547
  79  5981.729
  80  6367.851
  81  5994.02
  82  5560.032
  83  5510.082
  84  5024.177
  85  5078.642
  86  5422.962
  87  6195.453
  88  6147.78
  89  6292.24
  90  5987.213
  91  5346.268
  92  5301.158
  93  5024.641
  94  5503.461
  95  5496.212
  96  5812.033
  97  5531.766
  98  5826.177
  99  5698.819
 100  5388.567
 101  5037.767
 102  5581.052
 103  6068.834
 104  5770.654
 105  6293.44
 106  5870.29
 107  5809.8
 108  5082.14
 109  4913.682
 110  4908.615
 111  4877.226
 112  5768.095
 113  5903.206
 114  6339.421
 115  6108.212
 116  5793.945
 117  5438.479
 118  5188.338
 119  5970.552
 120  5708.424
 121  6278.136
 122  6467.341
 123  5435.776
 124  5312.488
 125  5007.816
 126  5124.599
 127  5266.524
 128  5670.117
 129  6121.266
 130  6156.148
 131  5567.06
 132  5379.422
 133  4873.146
 134  4488.949
 135  5185.061
 136  5167.989
 137  5863.333
 138  5954.642
 139  6119.523
 140  5634.38
 141  4892.488
 142  5408.672
 143  5297.377
 144  5518.626
 145  5518.177
 146  5594.503
 147  5510.411
 148  5240.882
 149  5470.001
 150  4687.375
 151  4640.087
 152  5506.158
 153  6149.987
 154  6304.453
 155  5457.844
 156  5278.458
 157  4950.053
 158  4924.349
 159  4971.833
 160  4959.6
 161  5979
 162  5930.2
 163  5367.949
 164  5289.492
 165  5308.812
 166  4906.845
 167  5090.071
 168  5417.292
 169  5640.184
 170  6012.498
 171  5687.396
 172  6020.455
 173  5345.408
 174  4869.097
 175  4220.472
 176  4401.199
 177  5000.825
 178  5633.279
 179  6480.175
 180  5989.335
 181  6099.868
 182  5368.902
 183  5402.562
 184  5003.935
 185  5860.841
 186  6404.43
 187  5780.85
 188  5977.145
 189  5759.692
 190  5356.104
 191  5537.862
 192  4883.883
 193  5230.604
 194  5515.832
 195  5811.586
 196  5679.375
 197  5917.023
 198  5881.51
 199  5301.802
 200  5301.514
 201  5574.465
 202  6078.643
 203  5499.386
 204  5745.757
 205  6111.788
 206  5584.906
 207  5507.344
 208  4991.506
 209  5533.438
 210  5488.305
 211  5418.184
 212  5822.631
 213  6034.024
 214  5591.115
 215  5109.804
 216  5179.343
 217  4704.523
 218  5246.441
 219  5583.276
 220  5780.126
 221  5908.197
 222  5312.6
 223  5400.153
 224  5040.832
 225  5026.521
 226  5106.303
 227  5044.135
 228  5340.896
 229  5254.304
 230  5481.405
 231  5129.502
 232  4936.65
 233  4612.343
 234  4814.967
 235  5232.075
 236  5503.058
 237  5498.618
 238  4986.184
 239  4922.91
 240  4151.275
 241  4294.295
 242  5016.272
 243  5327.588
 244  5122.703
 245  5366.866
 246  5475.941
 247  4692.584
 248  4598.913
 249  4426.19
 250  4698.798
 251  5415.95
 252  5782.194
 253  6065.635
 254  5692.774
 255  5565.773
 256  4843.03
 257  4396.055
 258  4301.796
 259  4488.841
 260  5507.947
 261  5744.036
 262  5807.512
 263  5745.805
 264  5516.026
 265  4771.417
 266  4474.064
 267  5130.065
 268  5383.666
 269  5510.454
 270  5626.721
 271  5919.044
 272  5953.418
 273  5039.336
 274  5108.24
 275  4704.527
 276  5341.077
 277  5521.275
 278  5793.506
 279  5548.23
 280  5317.659
 281  5100.954
 282  4881.664
 283  5468.852
 284  5648.169
 285  5737.644
 286  5536.636
 287  5617.752
 288  5616.388
 289  5013.951
 290  4598.449
 291  4619.136
 292  5025.078
 293  5419.793
 294  5867.354
 295  6133.326
 296  6312.148
 297  6753.049
 298  6728.96
 299  6661.49
 300  6345.373
 301  6119.114
 302  5936.65
 303  5778.314
 304  5664.918
 305  5434.452
 306  5435.016
 307  4921.225
 308  4981.735
 309  5498.31
 310  5070.712
 311  5231.86
 312  5689.354
 313  5301.606
 314  4959.748
 315  5063.195
 316  5007.674
 317  5889.871
 318  5886.433
 319  5862.29
 320  5939.365
 321  5657.098
 322  4955.51
 323  4418.806
 324  4831.721
 325  5177.445
 326  5019.181
 327  5227.098
 328  5146.187
 329  5446.383
 330  5261.464
 331  4742.107
 332  4312.766
 333  4922.826
 334  5856.355
 335  6126.225
 336  5888.138
 337  5407.52
 338  5472.907
 339  5020.516
 340  4506.518
 341  5235.88
 342  5667.129
 343  6052.92
 344  5575.903
 345  5209.231
 346  5082.367
 347  4459.182
 348  4409.096
 349  5104.542
 350  5952.054
 351  5954.5
 352  6172.125
 353  5790.276
 354  5555.638
 355  5386.575
 356  5204.347
 357  5167.041
 358  5044.204
 359  5913.635
 360  6400.572
 361  6254.994
 362  5962.679
 363  6107.835
 364  5072.992
 365  4934.85
 366  5570.06
 367  5967.937
 368  6575.662
 369  6047.76
 370  6045.813
 371  5779.792
 372  5213.197
 373  5247.795
 374  5237.776
 375  5806.01
 376  5924.485
 377  6130.382
 378  5720.863
 379  5995.718
 380  5929.99
 381  5521.335
 382  5806.965
 383  5711.229
 384  5796.142
 385  5979.022
 386  6408.297
 387  6033.7
 388  6035.182
 389  6148.393
 390  5575.352
 391  5421.162
 392  5857.947
 393  6241.008
 394  5777.12
 395  5924.502
 396  5837.021
 397  5403.293
 398  5516.498
 399  5425.133
 400  6254.374
 401  6569.631
 402  5875.64
 403  6043.921
 404  5435.244
 405  5499.559
 406  4814.368
 407  5479.509
 408  5979.872
 409  5687.604
 410  5597.038
 411  5629.462
 412  6215.801
 413  5495.422
 414  5009.525
 415  4902.86
 416  5503.618
 417  6395.21
 418  6056.874
 419  5956.482
 420  5005.311
 421  5168.463
 422  4821.137
 423  4686.645
 424  5612.753
 425  5644.535
 426  6057.582
 427  5852.409
 428  5621.846
 429  5285.732
 430  4936.568
 431  4640.419
 432  5351.86
 433  5754.102
 434  5875.14
 435  6072.485
 436  5574.399
 437  5909.183
 438  5171.776
 439  4886.85
 440  4712.009
 441  5036.764
 442  5872.035
 443  5247.506
 444  6119.806
 445  6013.954
 446  5754.846
 447  5448.633
 448  5368.203
 449  5485.105
 450  5297.227
 451  5936.681
 452  5955.031
 453  5745.073
 454  5611.026
 455  5041.078
 456  4694.643
 457  4492.475
 458  5301.566
 459  5919.668
 460  6167.292
 461  5721.956
 462  5718.162
 463  5544.095
 464  5044.73
 465  5157.615
 466  5501.32
 467  6029.809
 468  5885.988
 469  5830.314
 470  5703.081
 471  5257.703
 472  5330.595
 473  5509.097
 474  6008.513
 475  5864.312
 476  5645.01
 477  5764.219
 478  5166.063
 479  5359.219
 480  5489.027
 481  5744.913
 482  5250.212
 483  5742.158
 484  5977.604
 485  5711.956
 486  5868.973
 487  5096.871
 488  5293.149
 489  5222.61
 490  5288.556
 491  5686.245
 492  5790.04
 493  5644.963
 494  5259.838
 495  5826.595
 496  5541.259
 497  5106.426
 498  5273.942
 499  6000.082
 500  6572.157
 501  5976.12
 502  5830.05
 503  5532.843
 504  5279.246
 505  4687.334
 506  5375.271
 507  5670.491
 508  5760.243
 509  5943.52
 510  5988.82
 511  6049.697
