# Input file       =  1212375269.110713_cleaned.dat
# Candidate        =  PSR_0332+5434
# Telescope        =  AR
# Epoch_topo       =  58276.121390170287
# Epoch_bary       =  N/A
# T_sample         =  0.002
# Data Folded      =  7143424
# Data Avg         =  0.296012154656436
# Data StdDev      =  6.01064420804513 
# Profile Bins     =  1024
# Profile Avg      =  2064.9388399875  
# Profile StdDev   =  502.023742783992 
# Reduced chi-sqr  =  0.613
# Prob(Noise)      <  1   (~0.0 sigma)
# P_topo (ms)      =  714.510999602018  +/- 4.02e-05
# P'_topo (s/s)    =  -0                +/- 2.18e-11
# P''_topo (s/s^2) =  0                 +/- 9.89e-15
# P_bary (ms)      =  N/A
# P'_bary (s/s)    =  N/A
# P''_bary (s/s^2) =  N/A
# P_orb (s)        =  N/A
# asin(i)/c (s)    =  N/A
# eccentricity     =  N/A
# w (rad)          =  N/A
# T_peri           =  N/A
######################################################
   0  1831.134
   1  2083.175
   2  2054.747
   3  2115.315
   4  2355.279
   5  2442.877
   6  2397.871
   7  2281.594
   8  2350.761
   9  2331.979
  10  2324.631
  11  2230.569
  12  2143.175
  13  2119.306
  14  2162.601
  15  2164.573
  16  2038.285
  17  1828.721
  18  1982.487
  19  2333.594
  20  2292.972
  21  2228.316
  22  1905.373
  23  1690.567
  24  1730.297
  25  2051.671
  26  2097.989
  27  1873.072
  28  1927.425
  29  2032.09
  30  2042.025
  31  2015.161
  32  1894.612
  33  2102.748
  34  2390.388
  35  2369.188
  36  2298.535
  37  2255.366
  38  2208.237
  39  2236.664
  40  2105.507
  41  1912.319
  42  1859.452
  43  1916.224
  44  1947.18
  45  1995.165
  46  2003.117
  47  1998.906
  48  2234.382
  49  2505.47
  50  2426.588
  51  2458.238
  52  2557.981
  53  2553.294
  54  2389.636
  55  2339.424
  56  2205.325
  57  2272.685
  58  2143.546
  59  1885.954
  60  1760.733
  61  1785.777
  62  1820.33
  63  1925.792
  64  2154.949
  65  2080.961
  66  2258.461
  67  2278.428
  68  2376.37
  69  2538.961
  70  2617.473
  71  2404.008
  72  2162.418
  73  2165.876
  74  2095.194
  75  1978.11
  76  1846.626
  77  1830.778
  78  1909.601
  79  1917.611
  80  2109.559
  81  2272.407
  82  2287.256
  83  2164.08
  84  2355.562
  85  2495.276
  86  2370.694
  87  2125.628
  88  2128.141
  89  2076.358
  90  1918.484
  91  1810.834
  92  1795.217
  93  1881.996
  94  2000.329
  95  2155.37
  96  2008.012
  97  1863.395
  98  2051.04
  99  2118.874
 100  2139.426
 101  2191.717
 102  2446.459
 103  2354.291
 104  2198.401
 105  2108.29
 106  2066.856
 107  1998.022
 108  1920.801
 109  1812.261
 110  1907.513
 111  1782.573
 112  2083.595
 113  2158.507
 114  2060.326
 115  1874.53
 116  2175.115
 117  2357.521
 118  2330.869
 119  2226.365
 120  2264.887
 121  2218.319
 122  2128.705
 123  2007.148
 124  2076.487
 125  2114.16
 126  1929.162
 127  2011.557
 128  2006.365
 129  1974.673
 130  1865.18
 131  2216.998
 132  2250.677
 133  2223.719
 134  2341.693
 135  2363.074
 136  2382.02
 137  2370.579
 138  2305.095
 139  2170.122
 140  2057.838
 141  1972.569
 142  2095.177
 143  1945.712
 144  1864.389
 145  2053.012
 146  2155.939
 147  2039.243
 148  2117.149
 149  2189.296
 150  2157.332
 151  2082.258
 152  2381.078
 153  2292.022
 154  2323.81
 155  2260.355
 156  2137.528
 157  2015.726
 158  1909.7
 159  1871.737
 160  1765.67
 161  1835.727
 162  1762.132
 163  1979.899
 164  1997.412
 165  2060.852
 166  2272.103
 167  2368.861
 168  2223.715
 169  2102.198
 170  2123.291
 171  2156.664
 172  2276.746
 173  2172.139
 174  2028.22
 175  1952.084
 176  2031.755
 177  2063.994
 178  2137.982
 179  1982.39
 180  1856.338
 181  1938.168
 182  2115.249
 183  2195.407
 184  2347.282
 185  2451.304
 186  2457.625
 187  2198.615
 188  2036.883
 189  1945.814
 190  2066.525
 191  2076.699
 192  2006.159
 193  1901.631
 194  1910.301
 195  2002.197
 196  2116.061
 197  2195.46
 198  2258.27
 199  2396.13
 200  2270.08
 201  2260.485
 202  2071.596
 203  2113.552
 204  2143.461
 205  2152.994
 206  1976.42
 207  1837.766
 208  1781.117
 209  1749.126
 210  1904.833
 211  1979.74
 212  2029.522
 213  2171.521
 214  2115.368
 215  2287.29
 216  2371.464
 217  2399.274
 218  2491.881
 219  2457.466
 220  2360.837
 221  2127.095
 222  2154.177
 223  1920.771
 224  1870.378
 225  1948.1
 226  1945.561
 227  1805.821
 228  1940.835
 229  2083.203
 230  2086.489
 231  2208.797
 232  2210.738
 233  2256.41
 234  2174.349
 235  2158.536
 236  2288.359
 237  2369.267
 238  2132.36
 239  1930.913
 240  1987.635
 241  1990.766
 242  2002.153
 243  1992.657
 244  1937.04
 245  2069.134
 246  2179.564
 247  2206.769
 248  2274.43
 249  2362.237
 250  2375.573
 251  2355.847
 252  2190.723
 253  1881.205
 254  1958.679
 255  2166.551
 256  2085.237
 257  1962.86
 258  1835.64
 259  1697.917
 260  1753.528
 261  2095.659
 262  2061.546
 263  2007.387
 264  2082.964
 265  2276.326
 266  2463.677
 267  2375.403
 268  2268.939
 269  2316.542
 270  2279.518
 271  2142.338
 272  2057.576
 273  1932.664
 274  1800.217
 275  1895.039
 276  1930.13
 277  1919.744
 278  2041.763
 279  2263.648
 280  2151.757
 281  2077.994
 282  2208.174
 283  2390.819
 284  2316.068
 285  2310.452
 286  2256.199
 287  2397.339
 288  2360.307
 289  2285.601
 290  2197.646
 291  1963.228
 292  1962.566
 293  1989.811
 294  2015.154
 295  1936.322
 296  2021.11
 297  2059.14
 298  2091.678
 299  2274.81
 300  2557.745
 301  2597.062
 302  2532.049
 303  2268.949
 304  2151.257
 305  1916.083
 306  1801.809
 307  1936.326
 308  1978.298
 309  1792.298
 310  1848.128
 311  1868.462
 312  1997.574
 313  1992.521
 314  2266.42
 315  2449.111
 316  2463
 317  2310.418
 318  2225.121
 319  2208.181
 320  2013.331
 321  2006.379
 322  1992.269
 323  1810.101
 324  1742.099
 325  1987.729
 326  2136.375
 327  2031.424
 328  2041.673
 329  2084.11
 330  2135.09
 331  2284.929
 332  2310.759
 333  2337.203
 334  2303.951
 335  2071.818
 336  2028.547
 337  2069.891
 338  2118.885
 339  2153.362
 340  2087.974
 341  1869.014
 342  2039.852
 343  2251.871
 344  2189.667
 345  1893.511
 346  1941.91
 347  2026.284
 348  2247.384
 349  2280.955
 350  2197.739
 351  2132.044
 352  2228.771
 353  2247.78
 354  2291.146
 355  2274.216
 356  2073.379
 357  2011.939
 358  2120.294
 359  2125.629
 360  2106.588
 361  2092.366
 362  1984.99
 363  2007.669
 364  2148.345
 365  2149.818
 366  2200.947
 367  2213.79
 368  2100.089
 369  2188.03
 370  2116.444
 371  2078.724
 372  2091.123
 373  2012.611
 374  1916.998
 375  1899.482
 376  1901.004
 377  1886.519
 378  1930.251
 379  2093.972
 380  2021.02
 381  2123.462
 382  2208.929
 383  2196.913
 384  2192.256
 385  2061.435
 386  1873.411
 387  1819.499
 388  1799.069
 389  1942.52
 390  1915.526
 391  1828.706
 392  1712.979
 393  1975.382
 394  2208.872
 395  2267.732
 396  2252.051
 397  2262.251
 398  2409.989
 399  2372.311
 400  2215.309
 401  2136.297
 402  2201.455
 403  2123.63
 404  2028.468
 405  1896.445
 406  1736.984
 407  1806.528
 408  1997.367
 409  2118.739
 410  2098.377
 411  2038.385
 412  2156.588
 413  2129.843
 414  2183.64
 415  2267.602
 416  2467.41
 417  2411.23
 418  2278.349
 419  2182.718
 420  2184.044
 421  2277.646
 422  2363.645
 423  2252.326
 424  2021.458
 425  1943.155
 426  1891.067
 427  1954.839
 428  1865.162
 429  1802.653
 430  2009.003
 431  2427.751
 432  2431.284
 433  2447.624
 434  2437.499
 435  2358.628
 436  2155.975
 437  2204.955
 438  2035.407
 439  2052.357
 440  1958.005
 441  1882.363
 442  1819.155
 443  1985.155
 444  2071.11
 445  2344.104
 446  2348.367
 447  2319.197
 448  2378.348
 449  2558.727
 450  2490.69
 451  2408.148
 452  2377.454
 453  2029.355
 454  2077.641
 455  2113.766
 456  1972.783
 457  1730.903
 458  1865.526
 459  1935.572
 460  1869.082
 461  1930.213
 462  2050.127
 463  2262.984
 464  2242.219
 465  2225.033
 466  2537.509
 467  2384.406
 468  2134.624
 469  2081.708
 470  2240.661
 471  2180.604
 472  2220.64
 473  2359.93
 474  2105.732
 475  1932.131
 476  1980.008
 477  2081.426
 478  2217.944
 479  2158.718
 480  2104.666
 481  2144.62
 482  2121.628
 483  2284.465
 484  2370.903
 485  2315.404
 486  2177.271
 487  2223.994
 488  2290.207
 489  2195.694
 490  2112.581
 491  2175.111
 492  2091.499
 493  2091.982
 494  2100.48
 495  2277.348
 496  2385.078
 497  2345.757
 498  2409.455
 499  2401.127
 500  2097.861
 501  2053.146
 502  2238.236
 503  2234.752
 504  1990.969
 505  1931.004
 506  1966.485
 507  1956.564
 508  1898.814
 509  1845.156
 510  1805.432
 511  1733.744
 512  2055.497
 513  2296.817
 514  2293.121
 515  2199.955
 516  2070.302
 517  1955.556
 518  1980.197
 519  2080.763
 520  2057.859
 521  1909.099
 522  2052.369
 523  2126.135
 524  1998.811
 525  1781.046
 526  1731.847
 527  1884.414
 528  2167.67
 529  2253.769
 530  2192.935
 531  2187.1
 532  2020.017
 533  1962.056
 534  1971.456
 535  1977.359
 536  1963.129
 537  1939.622
 538  1869.506
 539  1877.051
 540  1952.512
 541  1852.959
 542  1817.939
 543  1852.228
 544  1910.413
 545  2184.792
 546  2270.784
 547  2170.771
 548  2041.082
 549  2131.676
 550  2096.672
 551  2058.17
 552  1918.137
 553  1645.6
 554  1644.171
 555  1817.888
 556  1806.921
 557  1770.05
 558  1757.798
 559  1738.805
 560  1971.427
 561  2076.95
 562  2152.704
 563  2256.612
 564  2311.444
 565  2060.234
 566  1993.266
 567  2003.505
 568  1843.087
 569  1848.081
 570  1989.564
 571  1890.742
 572  1841.339
 573  1692.829
 574  1752.457
 575  1871.664
 576  2007.755
 577  2074.59
 578  2243.584
 579  2365.75
 580  2265.944
 581  2357.017
 582  2484.021
 583  2377.017
 584  2131.38
 585  2148.508
 586  2232.483
 587  2177.141
 588  2172.292
 589  2119.6
 590  2184.31
 591  2193.812
 592  2407.784
 593  2641.918
 594  2633.609
 595  2654.802
 596  2999.762
 597  3128.679
 598  3047.891
 599  3093.082
 600  3152.458
 601  2914.858
 602  2576.515
 603  2430.949
 604  2254.149
 605  2109.849
 606  1904.843
 607  1911.849
 608  1791.269
 609  1868.655
 610  2209.298
 611  2265.287
 612  2125.817
 613  2020.752
 614  2315.853
 615  2521.902
 616  2290.62
 617  2011.552
 618  1941.974
 619  2025.929
 620  1997.822
 621  2013.571
 622  2039.445
 623  1978.483
 624  1990.306
 625  2316.85
 626  2270.438
 627  1995.82
 628  2105.669
 629  2268.732
 630  2255.602
 631  2174.415
 632  2110.899
 633  2045.086
 634  2032.833
 635  2076.708
 636  2181.068
 637  2088.501
 638  1888.623
 639  2068.91
 640  2080.464
 641  1996.611
 642  2045.807
 643  2252.997
 644  2168.585
 645  1973.389
 646  2193.883
 647  2261.304
 648  2315.237
 649  2320.695
 650  2257.113
 651  2172.574
 652  2020.351
 653  1921.843
 654  1908.101
 655  1944.131
 656  1949.402
 657  2067.272
 658  1969.784
 659  1706.575
 660  1833.911
 661  2190.31
 662  2168.76
 663  2074.117
 664  2126.526
 665  2159.51
 666  2180.4
 667  2277.697
 668  2300.84
 669  2234.039
 670  2099.035
 671  1925.044
 672  1962.958
 673  1846.827
 674  1854.197
 675  2078.525
 676  2022.277
 677  1916.736
 678  2124.388
 679  2390.492
 680  2389.794
 681  2157.216
 682  2173.724
 683  1974.532
 684  1973.633
 685  1764.209
 686  1616.84
 687  1567.538
 688  1720.258
 689  1874.925
 690  2000.678
 691  1942.17
 692  1833.653
 693  2008.231
 694  2164.178
 695  2264.65
 696  2117.925
 697  2041.56
 698  2043.992
 699  2313.038
 700  2227.495
 701  1954.015
 702  1783.776
 703  1751.539
 704  1883.26
 705  1980.094
 706  2003.327
 707  1972.72
 708  1934.827
 709  2030.898
 710  2091.033
 711  2142.585
 712  2156.163
 713  2221.873
 714  2112.654
 715  2060.771
 716  2100.92
 717  2153.964
 718  1995.25
 719  1809.294
 720  1740.252
 721  1743.595
 722  1814.254
 723  1854.299
 724  1806.771
 725  1969.419
 726  1982.857
 727  1957.372
 728  1904.415
 729  1941.985
 730  1919.906
 731  1955.413
 732  1881.153
 733  1842.662
 734  1879.618
 735  1697.39
 736  1735.44
 737  1867.687
 738  1864.198
 739  1859.651
 740  1887.696
 741  1771.172
 742  1694.794
 743  1782.549
 744  1846.105
 745  1994.961
 746  1991.54
 747  1885.575
 748  1931.248
 749  2026.735
 750  1862.676
 751  1637.593
 752  1731.321
 753  1665.434
 754  1765.557
 755  1780.824
 756  1770.461
 757  1621.247
 758  1866.518
 759  1911.47
 760  1944.809
 761  1921.582
 762  1965.387
 763  2052.091
 764  2045.817
 765  1909.934
 766  1823.882
 767  1783.349
 768  1765.539
 769  1815.256
 770  1780.832
 771  1640.416
 772  1877.783
 773  1923.372
 774  1803.485
 775  1747.82
 776  1853.679
 777  2045.05
 778  2078.097
 779  2123.592
 780  1874.603
 781  1849.496
 782  1738.63
 783  1658.833
 784  1677.025
 785  1740.249
 786  1746.046
 787  1655.619
 788  1748.614
 789  1525.377
 790  1654.692
 791  1790.217
 792  1844.646
 793  1899.177
 794  2029.13
 795  2236.357
 796  2304.087
 797  2182.963
 798  2211.155
 799  2043.567
 800  1891.596
 801  1778.555
 802  1870.984
 803  1775.724
 804  1666.611
 805  1680.658
 806  1735.214
 807  1750.224
 808  1875.123
 809  1893.384
 810  1913.553
 811  1927.418
 812  2041.944
 813  2111.386
 814  2056.311
 815  1970.725
 816  1816.88
 817  1613.518
 818  1562.992
 819  1723.146
 820  1715.336
 821  1544.513
 822  1634.385
 823  1693.03
 824  1634.786
 825  1589.921
 826  1712.503
 827  1962.528
 828  2103.33
 829  2144.477
 830  2095.235
 831  2117.241
 832  2054.152
 833  2073.005
 834  2124.244
 835  1864.306
 836  1731.956
 837  1814.921
 838  1825.461
 839  1847.213
 840  1956.738
 841  1995.325
 842  1926.193
 843  1856.927
 844  1909.166
 845  2079.175
 846  2300.316
 847  2339.988
 848  2224.687
 849  2065.847
 850  1824.035
 851  1991.034
 852  2096.339
 853  1871.202
 854  1702.592
 855  1846.478
 856  1879.821
 857  1812.78
 858  1993.922
 859  2127.807
 860  2188.085
 861  2147.524
 862  2028.014
 863  2061.432
 864  2064.033
 865  1993.968
 866  2124.207
 867  2072.446
 868  1818.234
 869  1799.28
 870  1855.446
 871  1843.444
 872  1946.718
 873  2061.738
 874  2061.09
 875  2107.326
 876  2170.421
 877  2133.689
 878  1943.284
 879  1893.591
 880  1641.481
 881  1681.978
 882  1749.057
 883  1909.111
 884  1941.259
 885  1867.071
 886  1835.914
 887  1904.747
 888  2050.837
 889  1954.931
 890  1927.637
 891  1962.47
 892  1863.674
 893  1840.376
 894  1761.845
 895  1833.713
 896  2034.245
 897  2071.238
 898  2111.586
 899  2153.325
 900  2056.116
 901  1945.455
 902  1887.523
 903  1793.464
 904  1720.957
 905  1797.877
 906  1981.662
 907  1951.657
 908  1997.161
 909  2059.09
 910  2243.354
 911  2273.878
 912  2234.556
 913  2095.669
 914  2104.706
 915  2117.971
 916  2009.859
 917  1777.509
 918  1592.822
 919  1631.077
 920  1586.515
 921  1581.742
 922  1539.212
 923  1691.054
 924  1848.819
 925  2207.476
 926  2238.194
 927  2172.482
 928  2167.232
 929  2212.813
 930  2159.389
 931  2136.96
 932  1924.438
 933  1780.944
 934  1696.978
 935  1788.863
 936  1801.689
 937  1847.197
 938  1842.218
 939  1970.246
 940  2123.497
 941  2134.309
 942  2496.213
 943  2601.268
 944  2485.304
 945  2279.876
 946  2304.293
 947  1991.042
 948  1889.763
 949  1879.782
 950  1940.201
 951  1828.451
 952  1879.469
 953  1896.726
 954  1712.835
 955  1788.163
 956  1778.835
 957  1971.141
 958  2107.206
 959  2127.144
 960  2425.948
 961  2313.092
 962  2063.65
 963  2039.586
 964  2313.967
 965  2172.768
 966  2012.695
 967  1952.868
 968  1839.947
 969  1920.435
 970  2073.091
 971  2063.036
 972  1906.186
 973  1955.116
 974  1945.277
 975  2185.585
 976  2157.906
 977  2201.679
 978  2415.309
 979  2473.077
 980  2424.335
 981  2145.314
 982  2068.824
 983  1828.407
 984  1886.729
 985  2032.127
 986  1885.737
 987  1756.544
 988  1917.037
 989  2111.224
 990  2098.407
 991  2030.648
 992  2160.712
 993  2351.934
 994  2137.671
 995  2142.918
 996  2209.382
 997  2145.069
 998  1989.979
 999  2150.533
1000  2196.408
1001  2071.343
1002  2032.249
1003  2185.662
1004  2088.995
1005  2026.102
1006  2015.063
1007  2229.66
1008  2230.078
1009  2129.12
1010  2145.168
1011  2198.749
1012  2321.02
1013  2433.595
1014  2501.07
1015  2201.239
1016  1932.611
1017  1911.565
1018  2058.806
1019  2006.463
1020  1990.77
1021  1989.85
1022  1924.106
1023  1898.202
