# Input file       =  1212318657.113172_cleaned.dat
# Candidate        =  PSR_0332+5434
# Telescope        =  AR
# Epoch_topo       =  58275.466158717267
# Epoch_bary       =  N/A
# T_sample         =  0.002
# Data Folded      =  7340032
# Data Avg         =  0.0294822445399145
# Data StdDev      =  2.46613994682524 
# Profile Bins     =  1024
# Profile Avg      =  211.238449610247 
# Profile StdDev   =  208.793375922613 
# Reduced chi-sqr  =  1.150
# Prob(Noise)      <  0.000574   (~3.3 sigma)
# P_topo (ms)      =  714.511977066287  +/- 0.000162
# P'_topo (s/s)    =  -0                +/- 8.57e-11
# P''_topo (s/s^2) =  0                 +/- 3.78e-14
# P_bary (ms)      =  N/A
# P'_bary (s/s)    =  N/A
# P''_bary (s/s^2) =  N/A
# P_orb (s)        =  N/A
# asin(i)/c (s)    =  N/A
# eccentricity     =  N/A
# w (rad)          =  N/A
# T_peri           =  N/A
######################################################
   0  378.5999
   1  372.797
   2  355.3751
   3  398.2129
   4  386.0921
   5  270.0213
   6  192.0591
   7  171.014
   8  286.8384
   9  335.1216
  10  383.0914
  11  328.9014
  12  207.3805
  13  142.9948
  14  167.0477
  15  187.2076
  16  194.5613
  17  144.5262
  18  161.4292
  19  272.4919
  20  329.8596
  21  293.1002
  22  221.0665
  23  263.6723
  24  308.0903
  25  335.4782
  26  244.1544
  27  305.1371
  28  241.7505
  29  175.1995
  30  69.89518
  31  159.0815
  32  248.0686
  33  232.4565
  34  129.4691
  35  138.2532
  36  20.80261
  37  5.96233
  38  43.9887
  39  220.2014
  40  252.8409
  41  177.1112
  42  126.8797
  43  114.9439
  44  209.7067
  45  318.2334
  46  230.1987
  47  225.1252
  48  217.9144
  49  181.968
  50  69.30924
  51  22.54923
  52  154.9217
  53  189.3988
  54  208.6343
  55  146.5419
  56  86.96418
  57  86.51306
  58  87.92092
  59  165.7111
  60  180.8932
  61  192.0149
  62  59.77486
  63  2.613924
  64  15.83017
  65  25.95694
  66  56.93158
  67  62.92352
  68  93.61153
  69  29.13221
  70  100.6523
  71  120.0416
  72  148.0476
  73  188.7783
  74  264.5826
  75  218.7392
  76  85.26667
  77  1.794074
  78  61.35991
  79  215.5961
  80  225.245
  81  152.6827
  82  77.04892
  83  99.68712
  84  260.0792
  85  356.4456
  86  292.7274
  87  151.5675
  88  88.07604
  89  138.3949
  90  268.7484
  91  205.0088
  92  246.1453
  93  169.4085
  94  267.4807
  95  252.7905
  96  256.4057
  97  215.7354
  98  87.85684
  99  125.2476
 100  127.2744
 101  166.5306
 102  137.9065
 103  127.3047
 104  147.6
 105  119.9455
 106  152.0011
 107  162.8292
 108  111.9005
 109  117.8775
 110  105.5969
 111  102.2443
 112  92.49485
 113  117.043
 114  195.1806
 115  217.0403
 116  193.2403
 117  236.2672
 118  71.988
 119  63.8617
 120  15.82265
 121  97.21687
 122  120.8899
 123  237.4921
 124  273.9526
 125  180.24
 126  146.3685
 127  149.6901
 128  224.8629
 129  184.4309
 130  178.8441
 131  129.2659
 132  194.5226
 133  152.1731
 134  187.4659
 135  185.7756
 136  270.0836
 137  243.4042
 138  221.9454
 139  226.8494
 140  301.843
 141  266.9633
 142  246.3391
 143  160.1219
 144  166.1959
 145  246.0027
 146  244.306
 147  248.9328
 148  213.6745
 149  238.7522
 150  178.2353
 151  42.67452
 152  8.567083
 153  -3.572156
 154  65.81856
 155  89.23372
 156  80.03303
 157  139.8215
 158  192.1949
 159  203.81
 160  179.0612
 161  170.749
 162  165.427
 163  178.0623
 164  233.5865
 165  191.6274
 166  112.4416
 167  116.5255
 168  208.816
 169  250.1048
 170  234.5544
 171  212.5822
 172  243.6174
 173  241.0396
 174  213.5884
 175  319.0145
 176  274.0299
 177  249.8336
 178  98.52341
 179  106.1958
 180  220.1301
 181  249.601
 182  189.1597
 183  77.04219
 184  95.09681
 185  76.69103
 186  89.58175
 187  164.5974
 188  246.3703
 189  219.8335
 190  231.2367
 191  269.8202
 192  301.5929
 193  258.4032
 194  210.0022
 195  183.861
 196  213.5004
 197  233.7756
 198  162.103
 199  81.46713
 200  -55.0829
 201  -71.95605
 202  118.3112
 203  276.3747
 204  396.5226
 205  370.075
 206  358.8056
 207  332.1051
 208  278.9253
 209  337.6955
 210  271.3478
 211  357.9836
 212  282.1473
 213  201.6561
 214  91.51179
 215  140.7929
 216  197.4789
 217  215.1153
 218  219.8705
 219  284.6881
 220  157.7271
 221  188.1646
 222  144.0663
 223  229.0673
 224  117.9596
 225  113.3571
 226  168.6024
 227  283.3182
 228  269.1613
 229  221.5671
 230  134.1074
 231  71.97802
 232  35.10653
 233  50.18285
 234  101.9909
 235  165.4519
 236  228.6161
 237  199.9579
 238  210.3897
 239  295.0256
 240  314.7736
 241  352.1858
 242  290.1245
 243  294.6313
 244  222.5757
 245  193.3136
 246  123.9818
 247  162.4983
 248  85.60528
 249  21.10184
 250  14.60099
 251  19.08411
 252  6.451933
 253  -29.77218
 254  142.6428
 255  216.5648
 256  200.1439
 257  96.55383
 258  138.8239
 259  101.1152
 260  45.24069
 261  -3.417441
 262  93.26749
 263  238.1177
 264  335.4551
 265  223.2586
 266  146.4753
 267  55.56424
 268  148.011
 269  174.5114
 270  292.601
 271  419.0177
 272  458.4242
 273  402.4806
 274  310.2598
 275  122.21
 276  30.59808
 277  14.59861
 278  103.6004
 279  113.7648
 280  -2.585892
 281  43.24899
 282  59.69893
 283  185.7794
 284  114.6045
 285  201.3037
 286  291.2495
 287  349.1703
 288  374.9206
 289  292.3442
 290  239.3597
 291  261.5696
 292  261.3476
 293  248.017
 294  135.8297
 295  189.7144
 296  270.7028
 297  387.3001
 298  404.8608
 299  348.7709
 300  290.1322
 301  201.0405
 302  160.5616
 303  120.6606
 304  108.5091
 305  123.0704
 306  155.77
 307  280.5062
 308  258.5634
 309  259.8379
 310  198.0891
 311  263.3322
 312  333.988
 313  281.1773
 314  194.6617
 315  144.7953
 316  229.8757
 317  298.6948
 318  309.9883
 319  265.401
 320  261.567
 321  254.7365
 322  252.623
 323  221.6873
 324  328.3387
 325  314.9296
 326  319.6285
 327  153.4416
 328  187.828
 329  212.9103
 330  272.9472
 331  203.8299
 332  192.3353
 333  216.3181
 334  212.9796
 335  163.7193
 336  209.8085
 337  260.894
 338  307.6774
 339  271.094
 340  198.3309
 341  113.0216
 342  80.96373
 343  164.73
 344  213.5077
 345  168.7047
 346  206.8353
 347  218.3598
 348  268.7945
 349  174.0564
 350  289.7583
 351  311.3031
 352  352.5024
 353  328.3927
 354  393.2466
 355  438.937
 356  437.9944
 357  367.7007
 358  324.1157
 359  255.2155
 360  250.234
 361  286.5788
 362  353.4733
 363  320.4686
 364  213.0623
 365  113.9209
 366  208.3812
 367  325.4052
 368  299.7926
 369  259.2154
 370  162.2296
 371  265.5738
 372  206.6842
 373  259.2369
 374  255.8947
 375  232.0632
 376  196.1764
 377  128.6774
 378  218.1576
 379  221.3797
 380  206.748
 381  254.2615
 382  206.7185
 383  149.162
 384  28.58379
 385  133.4209
 386  235.7745
 387  280.588
 388  263.0092
 389  163.4603
 390  138.5698
 391  85.98097
 392  159.5766
 393  184.7476
 394  200.255
 395  26.81399
 396  -63.97609
 397  -53.66972
 398  19.54096
 399  62.19943
 400  124.2362
 401  246.8451
 402  214.3008
 403  191.2173
 404  168.2265
 405  208.4715
 406  187.7148
 407  100.0152
 408  75.00306
 409  132.9321
 410  106.6338
 411  178.3941
 412  237.0681
 413  276.0898
 414  167.1363
 415  117.8664
 416  230.7844
 417  331.5487
 418  392.1404
 419  377.7679
 420  331.6541
 421  260.117
 422  216.8376
 423  175.5508
 424  132.0502
 425  153.471
 426  197.151
 427  128.3565
 428  87.07241
 429  26.55868
 430  45.25113
 431  82.30187
 432  149.6345
 433  220.4847
 434  187.4404
 435  144.6517
 436  283.118
 437  222.2558
 438  301.4775
 439  230.5291
 440  228.3462
 441  199.0661
 442  107.2117
 443  113.7008
 444  -20.00426
 445  -24.01694
 446  17.40701
 447  140.4296
 448  265.6191
 449  322.9803
 450  344.3602
 451  304.5844
 452  205.5826
 453  110.6005
 454  48.61869
 455  83.46985
 456  45.07693
 457  151.787
 458  217.7518
 459  287.4935
 460  173.5089
 461  114.5731
 462  169.3699
 463  279.0789
 464  280.3482
 465  155.5522
 466  50.35504
 467  8.598046
 468  49.39735
 469  2.440599
 470  -34.1498
 471  -22.66823
 472  57.51192
 473  80.26723
 474  29.70388
 475  138.8515
 476  229.3247
 477  340.6739
 478  247.1643
 479  246.2395
 480  216.4892
 481  182.3374
 482  53.46192
 483  -40.05172
 484  -23.34396
 485  4.794464
 486  124.5375
 487  224.401
 488  254.0924
 489  225.8908
 490  164.442
 491  145.6114
 492  169.0222
 493  227.4711
 494  275.5763
 495  211.3783
 496  176.8973
 497  289.1463
 498  342.9681
 499  189.2023
 500  33.56097
 501  60.05816
 502  95.8213
 503  64.09951
 504  58.55901
 505  135.6965
 506  172.6231
 507  194.5395
 508  110.5293
 509  100.0676
 510  89.7014
 511  101.9417
 512  206.3964
 513  235.4924
 514  238.5427
 515  116.1702
 516  59.44736
 517  117.2404
 518  169.5304
 519  154.7337
 520  168.6302
 521  137.4487
 522  227.2253
 523  187.6136
 524  219.4341
 525  38.31447
 526  -40.06751
 527  -57.9062
 528  -37.2058
 529  6.524147
 530  9.906731
 531  157.3299
 532  164.7581
 533  250.0871
 534  290.0021
 535  255.6337
 536  144.4251
 537  198.3788
 538  302.4334
 539  388.4388
 540  361.23
 541  255.3145
 542  244.1456
 543  227.5964
 544  190.9724
 545  189.2773
 546  108.9754
 547  40.11691
 548  68.29996
 549  173.3
 550  237.3332
 551  193.3318
 552  171.4014
 553  171.3781
 554  118.3253
 555  136.3624
 556  161.8652
 557  229.0666
 558  246.1992
 559  211.949
 560  71.43805
 561  113.1464
 562  238.7741
 563  289.45
 564  214.9747
 565  116.4176
 566  99.29488
 567  119.2722
 568  137.6605
 569  214.1591
 570  193.0815
 571  189.3234
 572  200.9821
 573  247.3622
 574  227.7175
 575  275.2959
 576  338.4627
 577  348.6405
 578  341.5136
 579  266.1962
 580  290.4
 581  205.4053
 582  295.2789
 583  349.778
 584  421.3323
 585  434.0166
 586  419.5622
 587  416.2682
 588  301.5047
 589  375.8134
 590  444.4883
 591  645.1333
 592  633.9493
 593  721.3693
 594  841.8676
 595  955.6157
 596  933.9365
 597  907.384
 598  990.7704
 599  937.1526
 600  834.0211
 601  648.1279
 602  534.9697
 603  369.035
 604  281.8674
 605  217.6999
 606  166.5466
 607  51.9096
 608  32.35232
 609  210.2988
 610  390.8673
 611  472.3757
 612  363.6596
 613  416.2312
 614  321.9925
 615  315.9479
 616  253.6308
 617  299.49
 618  177.7725
 619  61.26217
 620  -21.54334
 621  38.27687
 622  144.9654
 623  229.9981
 624  333.6222
 625  314.2366
 626  293.868
 627  240.4453
 628  275.8853
 629  318.7925
 630  322.695
 631  336.9711
 632  368.0971
 633  331.8102
 634  255.2804
 635  205.1607
 636  159.2746
 637  168.8709
 638  213.7648
 639  214.1194
 640  145.6745
 641  74.15154
 642  119.3356
 643  170.5762
 644  54.07175
 645  86.22631
 646  182.7726
 647  326.9726
 648  344.5054
 649  319.9061
 650  368.2965
 651  343.9046
 652  405.1407
 653  284.7129
 654  308.5976
 655  243.4496
 656  293.7003
 657  182.1806
 658  250.6458
 659  172.2568
 660  106.2254
 661  17.05244
 662  117.7332
 663  241.2003
 664  303.14
 665  250.5163
 666  173.9876
 667  52.53192
 668  57.87777
 669  205.4498
 670  266.8492
 671  230.1239
 672  154.7693
 673  183.7126
 674  84.45338
 675  -42.06026
 676  -157.6618
 677  -59.36095
 678  150.5456
 679  313.39
 680  345.9754
 681  248.57
 682  286.9367
 683  256.9888
 684  298.1028
 685  285.8547
 686  283.4721
 687  320.4304
 688  353.0787
 689  350.7108
 690  241.3977
 691  130.4183
 692  206.3495
 693  185.7484
 694  218.1159
 695  171.537
 696  213.7
 697  244.9145
 698  186.2716
 699  188.0215
 700  241.5896
 701  277.4823
 702  263.731
 703  206.7702
 704  233.0298
 705  266.074
 706  257.0869
 707  260.3418
 708  193.3931
 709  254.3074
 710  308.0746
 711  374.4502
 712  323.1988
 713  301.627
 714  279.0791
 715  181.7643
 716  151.868
 717  186.2696
 718  303.5932
 719  289.2775
 720  254.1904
 721  179.7355
 722  148.213
 723  140.2462
 724  187.2379
 725  154.0148
 726  145.4106
 727  139.0804
 728  172.7596
 729  242.2975
 730  342.8285
 731  374.3903
 732  253.8997
 733  125.2536
 734  74.00482
 735  201.5727
 736  299.986
 737  404.5624
 738  274.1328
 739  160.8964
 740  9.912768
 741  45.48402
 742  139.1242
 743  314.2542
 744  398.312
 745  365.6782
 746  362.0137
 747  412.9411
 748  366.0213
 749  351.1727
 750  309.9384
 751  307.1736
 752  212.4486
 753  208.3845
 754  275.9702
 755  274.4864
 756  203.8456
 757  157.3491
 758  182.6261
 759  139.5124
 760  100.0635
 761  161.3187
 762  290.2149
 763  280.8439
 764  246.6713
 765  224.388
 766  202.0774
 767  232.9425
 768  165.5445
 769  174.8003
 770  115.977
 771  45.94099
 772  22.95789
 773  41.7412
 774  221.1391
 775  270.7727
 776  246.4218
 777  243.5765
 778  159.7869
 779  171.0284
 780  90.42102
 781  158.7682
 782  180.2047
 783  235.3813
 784  194.3004
 785  159.8845
 786  131.5974
 787  256.4833
 788  408.8845
 789  407.8202
 790  300.3631
 791  235.7056
 792  358.8887
 793  399.8005
 794  139.8946
 795  -85.35521
 796  -29.81937
 797  108.0446
 798  210.2846
 799  227.481
 800  331.9991
 801  397.4998
 802  333.5744
 803  201.3571
 804  82.93104
 805  95.1937
 806  126.1303
 807  145.0485
 808  133.0112
 809  91.81186
 810  120.5027
 811  104.7054
 812  244.0512
 813  276.5952
 814  234.7472
 815  180.3173
 816  181.9858
 817  236.5975
 818  245.0304
 819  244.3954
 820  282.6395
 821  241.6341
 822  208.2666
 823  158.1545
 824  186.4465
 825  183.2481
 826  202.1144
 827  273.492
 828  322.7429
 829  340.2313
 830  301.1359
 831  288.3843
 832  257.8502
 833  240.1818
 834  284.5209
 835  339.5295
 836  357.2035
 837  318.3752
 838  313.3165
 839  337.181
 840  360.205
 841  268.5493
 842  107.5501
 843  39.04053
 844  70.88581
 845  128.2509
 846  191.983
 847  147.7496
 848  101.4774
 849  148.0435
 850  249.5382
 851  236.5061
 852  60.87814
 853  69.58546
 854  68.78784
 855  166.154
 856  145.0568
 857  136.7677
 858  156.5285
 859  169.9054
 860  255.6162
 861  273.5794
 862  277.5522
 863  286.3176
 864  302.1835
 865  225.2219
 866  155.6
 867  164.0214
 868  228.8995
 869  197.1592
 870  117.1663
 871  61.30044
 872  173.2117
 873  265.1244
 874  332.5422
 875  300.2828
 876  380.5692
 877  402.7916
 878  277.6729
 879  125.454
 880  161.1
 881  241.257
 882  282.1186
 883  257.9761
 884  135.2017
 885  102.955
 886  204.1481
 887  294.452
 888  357.6035
 889  240.4229
 890  177.869
 891  205.7268
 892  336.0992
 893  319.8518
 894  231.8351
 895  123.4088
 896  10.39424
 897  2.922499
 898  -25.66035
 899  67.6857
 900  98.75113
 901  162.0603
 902  80.4177
 903  64.15314
 904  80.76644
 905  220.1445
 906  273.6354
 907  259.2592
 908  205.2516
 909  149.8141
 910  137.455
 911  122.1754
 912  89.44125
 913  62.21237
 914  92.07381
 915  76.28671
 916  56.29626
 917  75.48067
 918  126.2067
 919  139.6132
 920  141.9908
 921  193.4333
 922  312.1197
 923  305.0815
 924  323.9644
 925  287.555
 926  273.0761
 927  160.3276
 928  134.9282
 929  123.2349
 930  230.3449
 931  69.77132
 932  81.4124
 933  98.917
 934  235.2822
 935  233.0433
 936  199.7322
 937  50.49543
 938  112.5085
 939  132.7858
 940  224.0841
 941  171.8029
 942  242.6238
 943  245.1689
 944  300.3364
 945  198.3978
 946  109.65
 947  11.98195
 948  72.98821
 949  57.38205
 950  43.10833
 951  50.03002
 952  142.0328
 953  205.1137
 954  210.2046
 955  153.4376
 956  171.3197
 957  267.5695
 958  346.0295
 959  323.283
 960  304.2387
 961  310.9729
 962  313.3703
 963  255.3839
 964  282.0593
 965  272.6549
 966  397.0119
 967  446.2155
 968  371.7618
 969  172.3605
 970  129.471
 971  233.6171
 972  385.6758
 973  464.7847
 974  441.7159
 975  366.0109
 976  309.4736
 977  231.9032
 978  97.23005
 979  24.93163
 980  154.5368
 981  279.1783
 982  404.946
 983  404.475
 984  422.0219
 985  339.8691
 986  353.1115
 987  359.2759
 988  349.9963
 989  362.7326
 990  405.3823
 991  417.2333
 992  349.4637
 993  302.4053
 994  352.1092
 995  361.2459
 996  395.8755
 997  370.7836
 998  334.7976
 999  249.1712
1000  216.2125
1001  323.5277
1002  453.4906
1003  383.2598
1004  321.9893
1005  322.4292
1006  358.6947
1007  454.1611
1008  500.8117
1009  480.5497
1010  312.5594
1011  210.1105
1012  215.695
1013  182.0741
1014  158.666
1015  140.4706
1016  132.3918
1017  220.8441
1018  315.7844
1019  380.0941
1020  376.5782
1021  366.6876
1022  402.9944
1023  427.3197
