# Input file       =  1212461417.113944_cleaned.dat
# Candidate        =  PSR_0332+5434
# Telescope        =  AR
# Epoch_topo       =  58277.118473541021
# Epoch_bary       =  N/A
# T_sample         =  0.002
# Data Folded      =  7143424
# Data Avg         =  0.265370412754245
# Data StdDev      =  5.77458980891046 
# Profile Bins     =  256
# Profile Avg      =  7404.85758401654 
# Profile StdDev   =  964.615801092102 
# Reduced chi-sqr  =  0.812
# Prob(Noise)      <  0.988   (~0.0 sigma)
# P_topo (ms)      =  714.510040588034  +/- 5.24e-05
# P'_topo (s/s)    =  -0                +/- 2.84e-11
# P''_topo (s/s^2) =  0                 +/- 1.29e-14
# P_bary (ms)      =  N/A
# P'_bary (s/s)    =  N/A
# P''_bary (s/s^2) =  N/A
# P_orb (s)        =  N/A
# asin(i)/c (s)    =  N/A
# eccentricity     =  N/A
# w (rad)          =  N/A
# T_peri           =  N/A
######################################################
   0  7950.221
   1  6646.906
   2  7275.662
   3  7685.577
   4  7869.776
   5  7399.122
   6  6531.851
   7  8237.636
   8  7709.919
   9  7896.849
  10  6921.586
  11  8010.736
  12  7412.956
  13  7920
  14  6809.68
  15  6880.711
  16  6734.237
  17  7717.429
  18  6234.609
  19  7505.133
  20  7347.534
  21  7359.114
  22  6700.711
  23  8266.522
  24  7380.23
  25  7132.682
  26  6855.653
  27  8020.089
  28  8729.53
  29  7752.001
  30  7135.427
  31  7558.449
  32  7469.321
  33  7585.96
  34  6857.531
  35  7481.939
  36  8104.648
  37  7919.574
  38  7041.856
  39  7321.364
  40  7871.654
  41  7609.569
  42  6239.021
  43  6777.978
  44  8107.091
  45  8151.706
  46  7161.397
  47  5875.651
  48  7447.487
  49  8357.954
  50  7469.498
  51  6260.65
  52  7302.966
  53  7515.368
  54  6817.333
  55  6624.642
  56  6771.66
  57  7540.872
  58  7614.467
  59  6166.55
  60  7177.89
  61  7383.281
  62  6735.574
  63  6107.266
  64  7101.528
  65  7003.098
  66  7956.963
  67  7082.215
  68  5985.017
  69  7152.395
  70  7548.504
  71  6627.444
  72  7510.032
  73  7758.689
  74  7376.257
  75  6537.369
  76  7747.44
  77  8726.772
  78  8448.504
  79  7379.21
  80  6745.298
  81  8483.891
  82  8011.778
  83  7270.013
  84  6428.078
  85  7648.606
  86  7893.698
  87  7712.217
  88  7567.017
  89  7497.501
  90  7890.186
  91  8371.913
  92  7192.801
  93  7590.789
  94  8543.795
  95  7975.513
  96  6465.422
  97  7175.643
  98  7832.845
  99  7804.038
 100  6498.652
 101  6032.175
 102  7072.292
 103  7829.83
 104  7363.333
 105  7644.131
 106  6790.217
 107  7838.679
 108  7291.665
 109  7720.177
 110  7083.356
 111  6995.629
 112  6436.583
 113  6279.772
 114  7878.704
 115  7635.501
 116  6600.301
 117  5911.398
 118  8413.284
 119  7349.926
 120  6775.863
 121  6180.909
 122  7542.972
 123  7667.907
 124  7567.37
 125  6575.372
 126  6689.081
 127  7082.873
 128  7717.602
 129  6303.963
 130  6765.664
 131  8233.597
 132  8544.874
 133  6878.351
 134  7109.379
 135  7520.133
 136  8101.813
 137  7481.445
 138  6396.548
 139  7872.321
 140  8266.525
 141  7999.271
 142  7163.894
 143  7201.573
 144  8399.759
 145  8278.248
 146  7479.639
 147  9108.98
 148  10711.83
 149  11587.51
 150  9804.828
 151  8797.712
 152  7944.552
 153  7623.458
 154  6472.136
 155  8767.026
 156  8900.146
 157  8198.075
 158  6291.353
 159  7506.205
 160  7666.004
 161  7987.304
 162  6306.623
 163  6963.516
 164  7724.107
 165  8297.792
 166  5998.632
 167  7748.832
 168  8210.18
 169  8008.954
 170  6787.094
 171  6197.891
 172  8055.706
 173  8484.548
 174  6867.999
 175  6528.088
 176  7767.343
 177  8020.451
 178  8016.641
 179  6829.861
 180  6573.242
 181  7506.189
 182  8118.952
 183  6935.652
 184  7473.07
 185  7621.823
 186  7973.34
 187  7093.677
 188  7504.565
 189  7283.674
 190  7856.751
 191  7215.659
 192  7303.736
 193  8341.742
 194  8294.544
 195  7671.61
 196  7170.478
 197  7651.871
 198  7800.507
 199  7234.368
 200  6808.582
 201  7257.536
 202  8574.237
 203  7996.223
 204  7221.614
 205  7852.462
 206  7442.05
 207  7217.759
 208  6732.558
 209  8026.892
 210  7496.668
 211  7111.951
 212  6310.781
 213  7076.086
 214  7712.573
 215  7428.728
 216  6779.555
 217  7125.097
 218  7906.289
 219  8367.194
 220  6316.127
 221  6667.134
 222  7240.223
 223  7593.287
 224  6048.662
 225  6582.893
 226  7580.586
 227  7993.268
 228  7127.835
 229  6504.054
 230  6062.523
 231  7743.769
 232  7555.032
 233  6582.398
 234  6010.045
 235  7097.723
 236  6850.594
 237  6949.849
 238  7826.967
 239  7189.333
 240  6845.425
 241  6656.563
 242  8046.986
 243  7674.53
 244  6948.736
 245  6436.741
 246  7632.526
 247  7674.896
 248  7358.87
 249  6938.765
 250  7617.915
 251  7755.779
 252  7063.283
 253  6482.835
 254  6964.298
 255  7808.132
