# Input file       =  1212116758.118906_cleaned.dat
# Candidate        =  PSR_0332+5434
# Telescope        =  AR
# Epoch_topo       =  58273.129364802153
# Epoch_bary       =  N/A
# T_sample         =  0.002
# Data Folded      =  7208960
# Data Avg         =  0.0605606559678886
# Data StdDev      =  1.00010236217463 
# Profile Bins     =  512
# Profile Avg      =  852.732253597736 
# Profile StdDev   =  118.671322004805 
# Reduced chi-sqr  =  1.173
# Prob(Noise)      <  0.0041   (~2.6 sigma)
# P_topo (ms)      =  714.513890970772  +/- 0.000148
# P'_topo (s/s)    =  -0                +/- 7.93e-11
# P''_topo (s/s^2) =  0                 +/- 3.56e-14
# P_bary (ms)      =  N/A
# P'_bary (s/s)    =  N/A
# P''_bary (s/s^2) =  N/A
# P_orb (s)        =  N/A
# asin(i)/c (s)    =  N/A
# eccentricity     =  N/A
# w (rad)          =  N/A
# T_peri           =  N/A
######################################################
   0  795.0002
   1  707.1487
   2  704.6635
   3  695.3828
   4  796.8622
   5  817.6288
   6  759.1854
   7  711.1835
   8  786.9422
   9  751.8842
  10  654.7762
  11  691.0075
  12  760.2047
  13  870.1212
  14  904.96
  15  907.7794
  16  939.4698
  17  911.6284
  18  880.3995
  19  740.1808
  20  807.0215
  21  756.7325
  22  749.5671
  23  894.0524
  24  946.3718
  25  886.2063
  26  874.7552
  27  853.9076
  28  799.4391
  29  813.4291
  30  830.7083
  31  808.0467
  32  843.2084
  33  853.3526
  34  930.7238
  35  900.9113
  36  828.6383
  37  823.4589
  38  842.2386
  39  941.7996
  40  932.2073
  41  941.6318
  42  814.4921
  43  804.0798
  44  821.2513
  45  869.1214
  46  908.9969
  47  890.1134
  48  817.4564
  49  872.3491
  50  915.7975
  51  871.9733
  52  795.8679
  53  823.262
  54  913.9979
  55  808.9207
  56  871.8088
  57  929.2598
  58  1041.043
  59  1241.616
  60  1450.499
  61  1453.15
  62  1452.395
  63  1280.631
  64  1083.475
  65  1007.465
  66  918.7195
  67  879.1555
  68  914.6716
  69  960.1489
  70  846.0151
  71  799.533
  72  823.2549
  73  765.8163
  74  899.1801
  75  902.715
  76  852.8362
  77  794.1251
  78  815.862
  79  840.3715
  80  893.764
  81  861.3591
  82  872.888
  83  959.4969
  84  869.0404
  85  746.6482
  86  752.4644
  87  915.8001
  88  774.4926
  89  698.6375
  90  705.5135
  91  738.1656
  92  805.368
  93  859.1926
  94  763.4677
  95  733.7625
  96  858.739
  97  938.7809
  98  910.6528
  99  826.9239
 100  894.4016
 101  936.7744
 102  782.1876
 103  681.8375
 104  753.4556
 105  838.2154
 106  880.3586
 107  792.0519
 108  782.0668
 109  765.125
 110  627.0516
 111  738.507
 112  838.5855
 113  896.2668
 114  881.3333
 115  887.456
 116  874.9504
 117  854.2836
 118  810.4869
 119  809.8599
 120  853.8842
 121  699.3855
 122  845.4258
 123  1074.541
 124  874.3214
 125  867.7661
 126  883.7969
 127  820.3951
 128  847.8016
 129  829.3462
 130  894.3741
 131  944.3832
 132  870.3726
 133  905.1095
 134  823.3918
 135  806.9891
 136  874.447
 137  759.0371
 138  839.915
 139  841.186
 140  814.3008
 141  860.7042
 142  928.3478
 143  927.3356
 144  883.9518
 145  918.7479
 146  910.8315
 147  831.1461
 148  932.6066
 149  906.2628
 150  882.4867
 151  1163.699
 152  1072.379
 153  881.7227
 154  868.8435
 155  962.9822
 156  945.1866
 157  899.1944
 158  967.46
 159  1007.617
 160  928.5699
 161  891.1323
 162  860.9167
 163  1018.72
 164  931.849
 165  870.0883
 166  912.4856
 167  883.8289
 168  868.8022
 169  876.4233
 170  958.204
 171  924.0909
 172  805.8101
 173  797.5189
 174  857.3757
 175  958.5992
 176  855.2737
 177  770.8107
 178  746.9961
 179  884.0598
 180  972.592
 181  957.6906
 182  901.8571
 183  755.2552
 184  751.3083
 185  890.4993
 186  912.2198
 187  924.0844
 188  777.1414
 189  912.8029
 190  909.7915
 191  893.5059
 192  883.9493
 193  834.6016
 194  928.5969
 195  908.8149
 196  829.3488
 197  915.9981
 198  958.5198
 199  846.9792
 200  864.9418
 201  869.977
 202  803.3884
 203  767.2847
 204  855.7871
 205  956.4899
 206  802.6208
 207  903.8412
 208  882.3458
 209  998.8557
 210  959.825
 211  890.7078
 212  790.7926
 213  769.8503
 214  939.8438
 215  944.304
 216  939.8768
 217  805.6979
 218  812.213
 219  781.8191
 220  718.9927
 221  789.7054
 222  930.5742
 223  988.8014
 224  860.4325
 225  899.6998
 226  871.0156
 227  843.9162
 228  718.7768
 229  855.3551
 230  903.6792
 231  902.8086
 232  898.0851
 233  890.8629
 234  902.8629
 235  890.0443
 236  970.9195
 237  862.4416
 238  921.6177
 239  942.4178
 240  897.436
 241  727.8584
 242  786.8771
 243  919.7654
 244  913.869
 245  804.2733
 246  820.1959
 247  813.9141
 248  908.5696
 249  882.7415
 250  874.5106
 251  879.9496
 252  867.4874
 253  917.7515
 254  888.4951
 255  719.8328
 256  794.0873
 257  804.215
 258  887.6763
 259  851.0068
 260  826.9053
 261  822.7776
 262  855.2836
 263  892.3522
 264  724.8258
 265  717.1412
 266  769.527
 267  760.1154
 268  836.4796
 269  974.0668
 270  879.1105
 271  787.6284
 272  790.2239
 273  760.1309
 274  751.1315
 275  695.7049
 276  816.9677
 277  901.5624
 278  872.2894
 279  875.8276
 280  826.6057
 281  748.55
 282  710.9942
 283  756.8279
 284  790.694
 285  845.921
 286  723.2484
 287  787.972
 288  785.3192
 289  893.8716
 290  898.8965
 291  795.3542
 292  820.8471
 293  672.9205
 294  845.8861
 295  759.2549
 296  773.1404
 297  769.9715
 298  958.2531
 299  922.9312
 300  883.8325
 301  805.6704
 302  821.9414
 303  804.6139
 304  732.3915
 305  828.1739
 306  951.5028
 307  852.3376
 308  836.7095
 309  763.1506
 310  778.6777
 311  851.3932
 312  829.6882
 313  906.4152
 314  829.8281
 315  792.3704
 316  960.9089
 317  830.9385
 318  766.1662
 319  844.2969
 320  1026.672
 321  875.927
 322  812.7567
 323  826.0551
 324  963.5411
 325  891.7995
 326  849.7753
 327  838.2527
 328  878.6859
 329  987.7099
 330  938.549
 331  947.8652
 332  902.298
 333  1001.072
 334  866.7119
 335  901.8771
 336  868.9161
 337  763.2695
 338  911.9239
 339  900.9719
 340  918.1603
 341  852.0538
 342  674.3118
 343  689.6846
 344  807.2134
 345  858.9789
 346  856.5108
 347  983.5414
 348  932.7752
 349  812.181
 350  786.5672
 351  841.8464
 352  842.501
 353  825.2659
 354  892.841
 355  932.5023
 356  819.0596
 357  807.1583
 358  781.13
 359  796.5172
 360  765.4299
 361  913.0814
 362  977.6182
 363  1012.102
 364  959.8988
 365  850.257
 366  774.9672
 367  944.8327
 368  899.3035
 369  852.7222
 370  782.9399
 371  813.9918
 372  804.8281
 373  734.1687
 374  818.1797
 375  785.2859
 376  761.1542
 377  808.8337
 378  905.2886
 379  868.6804
 380  850.8074
 381  810.2522
 382  757.4468
 383  697.8643
 384  772.5557
 385  714.5148
 386  755.9289
 387  795.5839
 388  812.1173
 389  1004.449
 390  909.9952
 391  908.8104
 392  924.1021
 393  803.5515
 394  862.793
 395  816.2496
 396  941.6769
 397  919.2734
 398  713.6234
 399  760.6443
 400  836.397
 401  836.6122
 402  703.7843
 403  891.0162
 404  943.0579
 405  916.2277
 406  816.9602
 407  829.2467
 408  792.2003
 409  750.3636
 410  735.0616
 411  724.847
 412  851.6067
 413  827.4595
 414  872.9925
 415  867.0671
 416  864.8105
 417  956.9755
 418  865.3265
 419  903.5426
 420  913.4091
 421  853.5804
 422  839.2383
 423  821.0767
 424  825.687
 425  743.6074
 426  800.2681
 427  1004.336
 428  1013.526
 429  897.8755
 430  753.5096
 431  705.4123
 432  879.0052
 433  933.545
 434  864.3103
 435  822.9133
 436  998.6141
 437  887.9896
 438  714.3353
 439  781.1188
 440  785.5124
 441  828.7063
 442  853.6954
 443  823.2662
 444  888.8682
 445  850.109
 446  794.2958
 447  825.5762
 448  755.7521
 449  699.2802
 450  641.4256
 451  733.5977
 452  781.3916
 453  894.398
 454  975.6513
 455  915.5334
 456  890.1574
 457  878.4607
 458  807.7568
 459  790.9933
 460  1031.758
 461  956.8417
 462  827.6495
 463  833.5279
 464  779.1462
 465  728.2731
 466  909.4592
 467  729.985
 468  783.0275
 469  809.2983
 470  875.5015
 471  853.4868
 472  922.5094
 473  854.6489
 474  828.8474
 475  803.0884
 476  859.2539
 477  755.2744
 478  692.323
 479  872.9102
 480  879.4641
 481  882.0312
 482  796.6416
 483  782.3248
 484  884.4473
 485  816.0581
 486  763.8283
 487  883.7059
 488  920.2152
 489  825.11
 490  824.7314
 491  766.3517
 492  810.5892
 493  870.3657
 494  810.6038
 495  817.0673
 496  818.0872
 497  837.329
 498  876.3596
 499  829.4357
 500  884.0134
 501  852.4316
 502  752.4633
 503  796.7863
 504  842.9129
 505  810.049
 506  787.6823
 507  746.2485
 508  754.5172
 509  749.7469
 510  764.8116
 511  843.1677
