# Input file       =  1212375269.110713_cleaned.dat
# Candidate        =  PSR_0332+5434
# Telescope        =  AR
# Epoch_topo       =  58276.121390170287
# Epoch_bary       =  N/A
# T_sample         =  0.002
# Data Folded      =  7143424
# Data Avg         =  0.296012154656436
# Data StdDev      =  6.01064420804513 
# Profile Bins     =  256
# Profile Avg      =  8259.75535995877 
# Profile StdDev   =  1004.04748556798 
# Reduced chi-sqr  =  0.777
# Prob(Noise)      <  0.997   (~0.0 sigma)
# P_topo (ms)      =  714.510999529362  +/- 4.38e-05
# P'_topo (s/s)    =  -0                +/- 2.37e-11
# P''_topo (s/s^2) =  0                 +/- 1.08e-14
# P_bary (ms)      =  N/A
# P'_bary (s/s)    =  N/A
# P''_bary (s/s^2) =  N/A
# P_orb (s)        =  N/A
# asin(i)/c (s)    =  N/A
# eccentricity     =  N/A
# w (rad)          =  N/A
# T_peri           =  N/A
######################################################
   0  7989.161
   1  9421.435
   2  9231.384
   3  8653.412
   4  8069.456
   5  8441.379
   6  7693.212
   7  7942.238
   8  8557.276
   9  9087.645
  10  7913.061
  11  7917.867
  12  9435.715
  13  9863.649
  14  8762.875
  15  7251.529
  16  8546.808
  17  9983.662
  18  8563.579
  19  7480.145
  20  8759.999
  21  9377.139
  22  8052.255
  23  7692.95
  24  7984.694
  25  9102.838
  26  8539.023
  27  7474.725
  28  8146.24
  29  8946.707
  30  8705.635
  31  8139.945
  32  7930.84
  33  9120.132
  34  9384.244
  35  8138.093
  36  8037.33
  37  8538.573
  38  9162.136
  39  8153.574
  40  7288.807
  41  8468.352
  42  8730.504
  43  8562.186
  44  8181.8
  45  8001.748
  46  9455.982
  47  8185.705
  48  7842.025
  49  8765.047
  50  8842.924
  51  8324.842
  52  7287.2
  53  8423.685
  54  9671.353
  55  8847.753
  56  7627.64
  57  8119.671
  58  8771.733
  59  8909.507
  60  7896.871
  61  8266.265
  62  9329.44
  63  8256.081
  64  7825.76
  65  7828.574
  66  8960.238
  67  9144.863
  68  7798.326
  69  7946.349
  70  8800.18
  71  9264.909
  72  8996.847
  73  7966.986
  74  8193.189
  75  9992.852
  76  8001.721
  77  7474.021
  78  8438.44
  79  9385.443
  80  7975.108
  81  7789.189
  82  8430.268
  83  9121.895
  84  8346.069
  85  8165.564
  86  8156.835
  87  8859.846
  88  8947.941
  89  8345.336
  90  8322.834
  91  8571.601
  92  8577.689
  93  8014.862
  94  7672.818
  95  8543.47
  96  8155.221
  97  7434.872
  98  8002.965
  99  9166.324
 100  8826.425
 101  7625.588
 102  8122.321
 103  8600.502
 104  9440.963
 105  9028.3
 106  7959.396
 107  7833.312
 108  9749.686
 109  8632.94
 110  7627.669
 111  8896.714
 112  9861.948
 113  8704.484
 114  7591.512
 115  7968.649
 116  9370.753
 117  8696.961
 118  8768.357
 119  8260.631
 120  8612.289
 121  9095.058
 122  8802.03
 123  8551.613
 124  9480.588
 125  8700.137
 126  8012.154
 127  7320.796
 128  8630.555
 129  8171.756
 130  8118.962
 131  7475.977
 132  8720.869
 133  7962.973
 134  7753.872
 135  7481.743
 136  8384.523
 137  8410.537
 138  7084.271
 139  7086.138
 140  8234.927
 141  8498.989
 142  7658.285
 143  7137.349
 144  8448.637
 145  9533.486
 146  8760.721
 147  8583.422
 148  10139.4
 149  12063.4
 150  11395.4
 151  8502.479
 152  7927.481
 153  8837.672
 154  8543.854
 155  8038.977
 156  8589.032
 157  8695.593
 158  8253.074
 159  8250.531
 160  8291.855
 161  8565.596
 162  9190.397
 163  7879.441
 164  7817.363
 165  8112.256
 166  8572.38
 167  8773.761
 168  7645.891
 169  8273.518
 170  8967.237
 171  7119
 172  7293.457
 173  8177.995
 174  8456.208
 175  7966.701
 176  7795.394
 177  8057.234
 178  8560.26
 179  8275.134
 180  7069.091
 181  7715.205
 182  7720.728
 183  7393.562
 184  7289.561
 185  7137.72
 186  7663.352
 187  7611.227
 188  6877.18
 189  7075.002
 190  7834.516
 191  7696.92
 192  7052.242
 193  7326.603
 194  7912.455
 195  7330.694
 196  6856.266
 197  6568.671
 198  7852.995
 199  8852.429
 200  7432.785
 201  6848.106
 202  7491.549
 203  8157.198
 204  6835.461
 205  6614.967
 206  6764.874
 207  8422.824
 208  8228.727
 209  7212.584
 210  7741.872
 211  8352.338
 212  8276.074
 213  7609.887
 214  7645.638
 215  8481.535
 216  8277.049
 217  7399.264
 218  8063.606
 219  8276.152
 220  6920.365
 221  7575.924
 222  7822.519
 223  7407.659
 224  8225.613
 225  7826.159
 226  7428.563
 227  8361.109
 228  8626.181
 229  7286.906
 230  6329.186
 231  8247.975
 232  8747.412
 233  7279.271
 234  7379.724
 235  9075.731
 236  9379.396
 237  7620.552
 238  7289.243
 239  7742.915
 240  8940.387
 241  8486.478
 242  7886.706
 243  7889.881
 244  9109.481
 245  8798.016
 246  7613.024
 247  7959.64
 248  8763.885
 249  8483.518
 250  8471.496
 251  8360.811
 252  8692.721
 253  9487.612
 254  8020.678
 255  7814.898
