# Input file       =  1212289145.117255_cleaned.dat
# Candidate        =  PSR_0332+5434
# Telescope        =  AR
# Epoch_topo       =  58275.124584690449
# Epoch_bary       =  N/A
# T_sample         =  0.002
# Data Folded      =  7143424
# Data Avg         =  0.276088662755275
# Data StdDev      =  6.1103901061074  
# Profile Bins     =  1024
# Profile Avg      =  1926.02215538341 
# Profile StdDev   =  510.354764774206 
# Reduced chi-sqr  =  1.090
# Prob(Noise)      <  0.0231   (~2.0 sigma)
# P_topo (ms)      =  714.511960155267  +/- 4.44e-05
# P'_topo (s/s)    =  -0                +/- 2.41e-11
# P''_topo (s/s^2) =  0                 +/- 1.09e-14
# P_bary (ms)      =  N/A
# P'_bary (s/s)    =  N/A
# P''_bary (s/s^2) =  N/A
# P_orb (s)        =  N/A
# asin(i)/c (s)    =  N/A
# eccentricity     =  N/A
# w (rad)          =  N/A
# T_peri           =  N/A
######################################################
   0  1956.344
   1  1755.462
   2  1665.845
   3  1682.79
   4  1604.65
   5  1679.718
   6  1703.595
   7  1748.129
   8  1742.766
   9  1815.112
  10  1746.668
  11  1640.839
  12  1659.681
  13  1690.771
  14  1762.32
  15  1617.756
  16  1612.746
  17  1627.32
  18  1568.382
  19  1485.303
  20  1374.678
  21  1649.49
  22  1935.978
  23  2155.112
  24  2165.072
  25  2132.554
  26  1974.615
  27  1944.693
  28  1716.071
  29  1623.193
  30  1466.414
  31  1450.159
  32  1244.106
  33  1254.072
  34  1275.091
  35  1382.271
  36  1548.753
  37  1561.491
  38  1699.08
  39  1714.93
  40  1805.226
  41  1726.3
  42  1675.249
  43  1556.083
  44  1369.669
  45  1472.07
  46  1576.571
  47  1544.898
  48  1576.417
  49  1781.095
  50  1624.016
  51  1446.404
  52  1369.276
  53  1513.42
  54  1697.359
  55  1789.303
  56  1747.766
  57  1742.893
  58  1862.361
  59  1895.346
  60  1868.45
  61  1698.844
  62  1445.385
  63  1437.484
  64  1498.734
  65  1470.096
  66  1401.495
  67  1275.805
  68  1136.454
  69  1194.216
  70  1417.764
  71  1509.321
  72  1575.612
  73  1730.469
  74  1837.213
  75  1934.293
  76  1914.415
  77  1654.846
  78  1493.434
  79  1603.434
  80  1554.372
  81  1608.132
  82  1554.141
  83  1432.35
  84  1457.622
  85  1237.912
  86  1316.862
  87  1410.027
  88  1674.193
  89  1747.471
  90  1811.69
  91  2066.328
  92  2093.512
  93  1885.996
  94  1726.631
  95  1697.481
  96  1756.715
  97  1820.759
  98  1750.651
  99  1625.153
 100  1375.968
 101  1206.648
 102  1118.294
 103  1216.869
 104  1279.719
 105  1445.338
 106  1663.069
 107  1661.949
 108  1689.595
 109  1729.137
 110  1737.808
 111  1736.372
 112  1615.769
 113  1710.002
 114  1815.963
 115  1691.574
 116  1692.844
 117  1641.293
 118  1676.083
 119  1588.926
 120  1463.194
 121  1509.455
 122  1541.14
 123  1784.955
 124  2036.81
 125  2100.422
 126  1864.992
 127  1822.513
 128  1804.016
 129  1773.968
 130  1733.356
 131  1770.457
 132  1824.583
 133  1783.245
 134  1528.614
 135  1507.318
 136  1614.892
 137  1755.162
 138  1823.971
 139  1909.317
 140  1917.132
 141  1787.091
 142  1784.363
 143  1815.243
 144  1611.564
 145  1555.315
 146  1683.782
 147  1741.432
 148  1698.902
 149  1924.914
 150  2010.605
 151  2057.344
 152  1891.554
 153  1845.061
 154  1837.799
 155  1812.141
 156  1780.429
 157  2002.687
 158  2074.454
 159  1889.945
 160  1838.627
 161  1807.753
 162  1610.234
 163  1575.468
 164  1642.716
 165  1758.456
 166  1682.192
 167  1679.329
 168  1682.845
 169  1704.729
 170  1798.969
 171  1800.49
 172  1851.74
 173  1870.62
 174  1919.93
 175  2078.367
 176  2204.091
 177  1920.537
 178  1864.574
 179  1862.151
 180  1795.225
 181  1824.932
 182  1809.929
 183  1744.963
 184  1705.261
 185  1645.274
 186  1681.341
 187  1805.922
 188  2071.132
 189  2206.807
 190  2240.86
 191  2034.876
 192  1956.339
 193  1890.644
 194  1915.555
 195  1813.377
 196  1865.89
 197  1946.288
 198  1819.037
 199  1608.166
 200  1684.435
 201  1643.165
 202  1666.08
 203  1777.943
 204  1888.899
 205  2000.362
 206  2009.752
 207  2089.303
 208  2111.416
 209  1913.915
 210  1786.392
 211  1930.132
 212  1973.065
 213  1871.589
 214  1722.866
 215  1686.422
 216  1787.762
 217  1928.709
 218  2101.063
 219  2122.162
 220  1898.792
 221  2021.124
 222  2225.708
 223  2336.509
 224  2234.21
 225  2206.373
 226  2152.144
 227  1957.444
 228  1690.007
 229  1553.234
 230  1636.691
 231  1592.748
 232  1672.87
 233  1711.187
 234  1500.79
 235  1398.605
 236  1536.508
 237  1842.725
 238  1827.999
 239  1884.382
 240  2145.894
 241  2189.431
 242  2218.877
 243  2132.474
 244  2098.739
 245  1782.281
 246  1805.016
 247  1706.118
 248  1685.812
 249  1700.937
 250  1602.27
 251  1712.047
 252  1749.219
 253  1854.325
 254  2086.126
 255  2150.906
 256  2325.703
 257  2563.188
 258  2709.969
 259  2249.862
 260  1998.127
 261  2026.331
 262  2036.148
 263  2026.549
 264  1928.199
 265  1905.724
 266  1669.756
 267  1482.695
 268  1427.348
 269  1561.345
 270  1835.528
 271  2007.499
 272  2175.269
 273  2334.433
 274  2072.555
 275  1940.186
 276  2088.06
 277  2034.82
 278  2072.574
 279  2202.48
 280  2127.46
 281  2130.827
 282  1858.057
 283  1888.991
 284  1997.716
 285  2077.8
 286  2145.032
 287  2257.113
 288  2274.046
 289  2153.181
 290  2182.711
 291  2320.386
 292  2115.016
 293  1973.692
 294  1973.984
 295  2154.581
 296  2134.333
 297  2054.018
 298  1876.321
 299  1642.358
 300  1617.394
 301  1343.672
 302  1453.797
 303  1684.691
 304  1950.585
 305  2202.047
 306  2170.99
 307  1916.308
 308  1787.914
 309  1871.447
 310  1743.35
 311  1689.592
 312  1713.683
 313  1804.181
 314  1659.597
 315  1577.191
 316  1817.826
 317  1951.343
 318  1995.837
 319  1971.059
 320  2182.902
 321  2476.884
 322  2670.322
 323  2701.561
 324  2602.215
 325  2375.897
 326  1984.617
 327  1944.653
 328  1926.434
 329  2024.063
 330  1982.184
 331  1860.73
 332  1686.026
 333  1648.997
 334  1694.881
 335  1953.482
 336  2166.626
 337  2276.538
 338  2439.769
 339  2453.21
 340  2393.349
 341  2215.177
 342  1994.178
 343  2056.241
 344  2033.846
 345  2217.125
 346  2270.977
 347  2041.806
 348  2010.781
 349  2024.841
 350  2051.423
 351  1875.333
 352  1874.335
 353  2030.374
 354  2258.287
 355  2402.056
 356  2242.062
 357  2106.692
 358  2054.148
 359  2086.533
 360  2184.464
 361  2119.261
 362  1993.513
 363  2006.858
 364  1872.18
 365  1797.078
 366  1785.055
 367  1798.572
 368  1749.661
 369  1717.841
 370  2033.283
 371  2091.403
 372  2064.474
 373  2163.314
 374  2078.161
 375  2101.41
 376  2124.828
 377  2084.444
 378  2131.789
 379  1950.561
 380  1804.258
 381  1773.064
 382  1796.845
 383  1723.675
 384  1805.218
 385  1982.229
 386  2200.132
 387  2260.37
 388  2330.832
 389  2382.464
 390  2319.248
 391  2187.343
 392  1961.378
 393  1875.046
 394  1893.249
 395  2023.626
 396  1978.377
 397  1872.152
 398  1661.151
 399  1760.747
 400  1883.26
 401  1794.311
 402  1855.101
 403  1927.696
 404  2118.215
 405  2197.787
 406  2213.797
 407  1879.19
 408  1778.857
 409  1896.301
 410  2031.968
 411  2102.541
 412  1983.319
 413  2006.157
 414  2029.027
 415  1898.939
 416  1808.635
 417  1693.474
 418  1846.817
 419  1968.484
 420  2301.446
 421  2270.909
 422  2114.682
 423  1984.839
 424  2141.73
 425  2067.656
 426  1954.499
 427  2025.289
 428  2214.096
 429  2096.75
 430  2046.076
 431  1805.019
 432  1657.145
 433  1627.35
 434  1534.495
 435  1658.407
 436  1578.508
 437  1850.655
 438  2027.446
 439  2231.705
 440  2186.732
 441  2071.212
 442  1958.428
 443  1997.074
 444  1809.769
 445  1827.952
 446  1836.209
 447  1767.375
 448  1787.476
 449  1769.319
 450  1670.252
 451  1837.063
 452  2092.547
 453  2307.833
 454  2441.277
 455  2453.611
 456  2371.215
 457  2167.052
 458  2029.717
 459  1822.82
 460  1804.369
 461  1808.611
 462  1843.677
 463  1971.251
 464  1922.396
 465  1797.367
 466  1495.123
 467  1609.194
 468  1698.298
 469  2061.964
 470  2225.338
 471  2158.821
 472  2140.375
 473  2067.674
 474  2047.128
 475  1874.978
 476  2008.443
 477  2032.074
 478  2177.696
 479  2197.958
 480  1751.04
 481  1703.147
 482  1784.828
 483  2100.725
 484  2226.475
 485  2109.918
 486  2199.553
 487  2441.039
 488  2622.263
 489  2510.105
 490  2306.056
 491  2245.042
 492  2057.387
 493  1948.325
 494  1914.175
 495  1898.52
 496  1910.269
 497  2038.236
 498  1916.82
 499  1880.792
 500  1896.084
 501  1877.862
 502  1966.586
 503  2204.415
 504  2143.389
 505  2102.468
 506  2217.039
 507  2306.62
 508  2338.763
 509  2225.278
 510  2181.621
 511  2331.525
 512  2249.539
 513  2219.303
 514  2077.984
 515  2043.902
 516  1986.476
 517  2025.296
 518  2102.943
 519  2408.349
 520  2545.147
 521  2709.193
 522  2359.896
 523  2259.297
 524  2194.3
 525  2222.662
 526  2329.428
 527  2395.012
 528  2309.348
 529  2090.647
 530  2065.867
 531  1908.641
 532  1977.266
 533  2029.082
 534  2174.862
 535  2193.083
 536  2336.018
 537  2443.451
 538  2255.973
 539  2196.097
 540  2064.492
 541  2051.426
 542  2005.507
 543  2113.744
 544  2172.264
 545  1996.357
 546  2010.836
 547  1980.335
 548  2124.906
 549  2256.194
 550  2371.645
 551  2576.028
 552  2665.49
 553  2717.719
 554  2686.669
 555  2526.979
 556  2332.03
 557  2372.29
 558  2422.624
 559  2282.501
 560  2011.654
 561  1914.792
 562  1976.549
 563  1899.888
 564  1704.452
 565  1598.874
 566  1791.261
 567  2122.657
 568  2207.776
 569  2366.875
 570  2489.867
 571  2516.777
 572  2439.45
 573  2219.444
 574  1996.501
 575  2067.969
 576  2337.657
 577  2321.724
 578  2304.428
 579  2278.383
 580  2204.967
 581  2249.95
 582  2277.103
 583  2117.061
 584  2111.649
 585  2391.585
 586  2675.384
 587  2638.033
 588  2454.015
 589  2328.162
 590  2408.667
 591  2577.312
 592  2709.603
 593  2776.141
 594  2703.531
 595  2693.377
 596  2743.629
 597  2657.801
 598  2537.312
 599  2419.75
 600  2698.723
 601  2511.743
 602  2579.605
 603  2604.745
 604  2504.627
 605  2299.593
 606  2037.049
 607  2092.706
 608  2059.96
 609  2050.956
 610  1977.511
 611  2026.677
 612  1962.978
 613  1996.085
 614  2031.307
 615  1992.248
 616  1874.463
 617  2129.168
 618  2298.047
 619  2460.717
 620  2408.721
 621  2493.83
 622  2532.132
 623  2292.638
 624  2133.511
 625  2064.495
 626  2006.224
 627  2102.392
 628  1990.682
 629  2106.649
 630  2036.952
 631  1995.495
 632  2055.913
 633  2070.099
 634  2073.034
 635  2083.306
 636  2209.281
 637  2239.508
 638  2024.546
 639  1949.643
 640  2010.889
 641  2236.852
 642  2248.684
 643  2282.144
 644  2205.425
 645  2208.778
 646  2293.529
 647  2145.031
 648  2083.08
 649  1986.389
 650  2171.853
 651  2195.724
 652  2165.347
 653  2079.779
 654  2363.166
 655  2404.39
 656  2204.354
 657  1981.262
 658  2065.8
 659  2180.245
 660  2396.865
 661  2210.212
 662  1974.191
 663  1836.219
 664  1796.67
 665  1898.267
 666  1827.396
 667  2005.961
 668  2110.129
 669  2289.203
 670  2269.811
 671  1988.523
 672  2003.038
 673  2149.385
 674  2013.703
 675  1988.005
 676  2085.614
 677  1966.508
 678  2084.865
 679  2064.659
 680  2111.536
 681  2106.066
 682  2232.981
 683  2432.382
 684  2585.116
 685  2658.137
 686  2503.598
 687  2319.327
 688  2202.008
 689  1916.944
 690  1949.975
 691  1982.89
 692  2249.241
 693  2153.192
 694  2093.293
 695  1858.653
 696  1794.492
 697  1912.021
 698  2041.525
 699  2330.263
 700  2492.119
 701  2395.151
 702  2378.694
 703  2337.25
 704  2255.888
 705  2180.842
 706  2076.624
 707  1775.837
 708  1796.515
 709  1882.406
 710  1915.204
 711  1951.26
 712  2067.517
 713  2277.224
 714  2391.389
 715  2617.529
 716  2604.002
 717  2491.591
 718  2440.804
 719  2653.946
 720  2630
 721  2299.758
 722  1972.45
 723  1955.094
 724  1957.58
 725  1882.751
 726  1804.596
 727  1912.089
 728  1915.366
 729  1961.324
 730  2002.814
 731  1936.853
 732  1950.29
 733  2220.802
 734  2368.033
 735  2472.342
 736  2344.77
 737  2295.42
 738  2130.997
 739  1857.252
 740  1925.859
 741  2120.58
 742  2157.005
 743  2134.861
 744  1870.763
 745  1916.867
 746  1810.378
 747  1818.557
 748  1965.376
 749  2110.027
 750  2217.976
 751  2216.073
 752  2242.628
 753  2078.693
 754  2020.239
 755  2098.818
 756  1929.228
 757  1886.899
 758  1852.628
 759  1907.495
 760  1677.441
 761  1249.787
 762  1282.036
 763  1354.459
 764  1558.187
 765  1606.972
 766  1584.651
 767  1761.599
 768  1739.182
 769  2028.043
 770  2187.286
 771  1979.287
 772  1760.151
 773  1855.886
 774  1990.834
 775  1980.702
 776  1957.815
 777  1885.052
 778  1936.635
 779  1850.308
 780  1831.162
 781  1853.851
 782  1814.654
 783  1980.204
 784  2118.055
 785  2120.725
 786  1916.685
 787  2017.756
 788  2059.385
 789  1973.776
 790  1958.58
 791  2037.571
 792  2063.398
 793  1882.973
 794  1808.434
 795  1640.969
 796  1497.323
 797  1479.853
 798  1437.496
 799  1655.763
 800  1828.226
 801  1873.593
 802  1846.452
 803  1799.2
 804  1587.149
 805  1650.944
 806  1878.277
 807  1808.895
 808  1858.023
 809  1754.29
 810  1832.343
 811  1817.962
 812  1755.641
 813  1929.067
 814  1975.736
 815  2074.719
 816  2161.609
 817  2226.387
 818  2276.921
 819  2027.56
 820  1859.549
 821  1803.607
 822  1754.463
 823  1760.3
 824  1850.787
 825  1995.87
 826  1973.516
 827  1814.848
 828  1580.745
 829  1468.258
 830  1517.461
 831  1568.239
 832  1836.781
 833  2053.006
 834  1947.984
 835  1878.056
 836  1824.781
 837  1850.483
 838  1851.617
 839  1848.428
 840  1733.075
 841  1731.418
 842  1734.447
 843  1984.629
 844  1833.147
 845  1773.273
 846  1786.821
 847  1783.701
 848  1971.259
 849  2156.439
 850  2182.868
 851  2314.426
 852  2295.697
 853  2195.794
 854  1900.873
 855  1735.641
 856  1693.158
 857  1766.764
 858  1745.123
 859  1752.962
 860  1709.984
 861  1659.758
 862  1534.948
 863  1519.021
 864  1714.279
 865  1874.545
 866  1963.442
 867  2044.018
 868  1901.276
 869  1727.949
 870  1564.465
 871  1532.286
 872  1492.574
 873  1534.934
 874  1427.174
 875  1584.992
 876  1564.281
 877  1460.626
 878  1569.758
 879  1643.207
 880  1780.642
 881  2045.644
 882  2459.382
 883  2514.931
 884  2390.698
 885  2156.212
 886  1920.265
 887  1772.228
 888  1757.754
 889  1743.07
 890  1659.778
 891  1509.573
 892  1383.563
 893  1485.695
 894  1520.204
 895  1559.593
 896  1699.056
 897  1929.632
 898  1923.06
 899  1790.974
 900  1802.432
 901  1647.182
 902  1672.739
 903  1851.857
 904  1719.525
 905  1766.786
 906  1592.2
 907  1703.293
 908  1712.817
 909  1432.084
 910  1286.09
 911  1412.786
 912  1724.915
 913  1765.544
 914  1793.544
 915  1763.664
 916  1930.517
 917  2145.678
 918  2236.502
 919  2027.828
 920  1680.455
 921  1670.272
 922  1593.655
 923  1557.32
 924  1558.744
 925  1579.953
 926  1469.742
 927  1398.032
 928  1219.254
 929  1334.762
 930  1390.056
 931  1463.528
 932  1720.61
 933  1701.496
 934  1746.019
 935  1746.622
 936  1897.796
 937  1690.893
 938  1496.774
 939  1568.784
 940  1861.052
 941  1942.714
 942  1652.618
 943  1521.515
 944  1387.276
 945  1526.939
 946  1614.807
 947  1716.884
 948  1815.454
 949  1853.555
 950  1858.572
 951  1962.568
 952  1973.976
 953  1753.283
 954  1799.872
 955  1797.908
 956  1909.793
 957  1759.552
 958  1650.039
 959  1448.786
 960  1202.441
 961  1033.981
 962  1194.93
 963  1449.382
 964  1552.408
 965  1510.451
 966  1718.964
 967  1745.327
 968  1671.939
 969  1484.802
 970  1576.056
 971  1608.364
 972  1697.529
 973  1850.141
 974  1546.396
 975  1523.859
 976  1487.923
 977  1595.961
 978  1802.176
 979  1921.89
 980  1896.889
 981  1900.207
 982  2049.299
 983  2141.081
 984  2177.805
 985  2170.054
 986  2056.256
 987  1853.404
 988  1756.835
 989  1684.037
 990  1828.962
 991  1621.04
 992  1603.84
 993  1490.467
 994  1647.542
 995  1587.268
 996  1609.433
 997  1916.917
 998  1966.038
 999  2197.704
1000  2195.896
1001  1913.598
1002  1612.251
1003  1578.257
1004  1665.785
1005  1818.788
1006  1892.937
1007  1867.71
1008  2082.733
1009  2126.115
1010  2047.071
1011  1834.625
1012  1583.379
1013  1627.81
1014  1783.661
1015  2093.471
1016  2066.486
1017  2011.84
1018  1896.034
1019  1850.517
1020  1795.02
1021  1801.205
1022  1844.011
1023  1893.249
